PE IR                   SPECTRUM    ASCII       PEDS        1.60        
  -1
~SP.SP
18/03/23
17:41:37.00
18/03/23
17:41:37.00
pili
NI
650.000000
4









SPECTRUM 100,CPU32 MAIN 00.02.8200 12-DECEMBER-2006 10:00:00
MIR TGS
MIR
OPTKBR
78890
0.200000

4.000000
STRONG
RATIO
SPECTRUM
MAGNITUDE
UNIVERSAL ATR
DOUBLE

COMBINED


0


#HDR
-1
-1
#GR
CM-1
%T
0.00002384185791015625
0.0
4000.000000
-1.000000
3351
8
101.204118
53.119843
#DATA
4000.000000	98.408923  
3999.000000	98.411087  
3998.000000	98.413262  
3997.000000	98.412360  
3996.000000	98.410318  
3995.000000	98.411105  
3994.000000	98.418833  
3993.000000	98.434438  
3992.000000	98.452975  
3991.000000	98.466163  
3990.000000	98.469003  
3989.000000	98.463555  
3988.000000	98.455670  
3987.000000	98.448825  
3986.000000	98.442327  
3985.000000	98.434734  
3984.000000	98.426919  
3983.000000	98.420720  
3982.000000	98.415730  
3981.000000	98.409457  
3980.000000	98.401413  
3979.000000	98.395861  
3978.000000	98.398914  
3977.000000	98.412386  
3976.000000	98.431027  
3975.000000	98.446464  
3974.000000	98.453597  
3973.000000	98.453230  
3972.000000	98.449375  
3971.000000	98.445282  
3970.000000	98.442101  
3969.000000	98.439862  
3968.000000	98.438616  
3967.000000	98.438474  
3966.000000	98.438936  
3965.000000	98.438525  
3964.000000	98.435250  
3963.000000	98.427749  
3962.000000	98.416221  
3961.000000	98.402530  
3960.000000	98.389796  
3959.000000	98.381793  
3958.000000	98.381779  
3957.000000	98.390242  
3956.000000	98.403390  
3955.000000	98.415147  
3954.000000	98.421850  
3953.000000	98.424775  
3952.000000	98.427468  
3951.000000	98.431111  
3950.000000	98.433318  
3949.000000	98.431512  
3948.000000	98.426859  
3947.000000	98.423775  
3946.000000	98.425407  
3945.000000	98.430253  
3944.000000	98.433641  
3943.000000	98.432290  
3942.000000	98.427028  
3941.000000	98.421011  
3940.000000	98.416153  
3939.000000	98.412794  
3938.000000	98.412504  
3937.000000	98.417761  
3936.000000	98.427812  
3935.000000	98.436721  
3934.000000	98.437597  
3933.000000	98.429421  
3932.000000	98.418346  
3931.000000	98.411895  
3930.000000	98.412504  
3929.000000	98.416678  
3928.000000	98.419321  
3927.000000	98.417551  
3926.000000	98.411803  
3925.000000	98.405276  
3924.000000	98.402218  
3923.000000	98.404606  
3922.000000	98.409457  
3921.000000	98.411647  
3920.000000	98.410012  
3919.000000	98.408307  
3918.000000	98.409792  
3917.000000	98.413472  
3916.000000	98.416681  
3915.000000	98.418729  
3914.000000	98.420176  
3913.000000	98.420856  
3912.000000	98.420885  
3911.000000	98.421463  
3910.000000	98.424046  
3909.000000	98.428898  
3908.000000	98.434926  
3907.000000	98.440423  
3906.000000	98.443449  
3905.000000	98.443022  
3904.000000	98.440907  
3903.000000	98.442048  
3902.000000	98.449593  
3901.000000	98.459139  
3900.000000	98.461997  
3899.000000	98.455086  
3898.000000	98.444316  
3897.000000	98.437549  
3896.000000	98.437671  
3895.000000	98.443194  
3894.000000	98.451316  
3893.000000	98.457019  
3892.000000	98.453910  
3891.000000	98.441044  
3890.000000	98.427785  
3889.000000	98.424474  
3888.000000	98.430380  
3887.000000	98.437213  
3886.000000	98.439261  
3885.000000	98.439305  
3884.000000	98.446761  
3883.000000	98.464199  
3882.000000	98.480453  
3881.000000	98.482643  
3880.000000	98.469760  
3879.000000	98.454591  
3878.000000	98.450852  
3877.000000	98.458959  
3876.000000	98.469466  
3875.000000	98.475100  
3874.000000	98.477059  
3873.000000	98.483792  
3872.000000	98.499421  
3871.000000	98.514084  
3870.000000	98.513313  
3869.000000	98.497371  
3868.000000	98.482006  
3867.000000	98.475420  
3866.000000	98.470351  
3865.000000	98.460000  
3864.000000	98.447342  
3863.000000	98.440223  
3862.000000	98.443719  
3861.000000	98.456273  
3860.000000	98.472145  
3859.000000	98.484093  
3858.000000	98.486826  
3857.000000	98.481325  
3856.000000	98.474691  
3855.000000	98.473516  
3854.000000	98.473174  
3853.000000	98.462757  
3852.000000	98.450012  
3851.000000	98.449849  
3850.000000	98.455996  
3849.000000	98.458775  
3848.000000	98.461212  
3847.000000	98.468178  
3846.000000	98.478128  
3845.000000	98.485387  
3844.000000	98.486186  
3843.000000	98.481165  
3842.000000	98.474931  
3841.000000	98.472419  
3840.000000	98.475786  
3839.000000	98.484359  
3838.000000	98.495607  
3837.000000	98.506003  
3836.000000	98.512335  
3835.000000	98.512533  
3834.000000	98.505813  
3833.000000	98.492958  
3832.000000	98.476417  
3831.000000	98.460950  
3830.000000	98.452335  
3829.000000	98.453177  
3828.000000	98.460874  
3827.000000	98.469673  
3826.000000	98.475498  
3825.000000	98.478891  
3824.000000	98.481617  
3823.000000	98.482571  
3822.000000	98.479017  
3821.000000	98.469026  
3820.000000	98.457684  
3819.000000	98.454668  
3818.000000	98.458644  
3817.000000	98.462310  
3816.000000	98.464645  
3815.000000	98.469092  
3814.000000	98.478632  
3813.000000	98.489565  
3812.000000	98.495792  
3811.000000	98.499315  
3810.000000	98.505288  
3809.000000	98.510900  
3808.000000	98.506353  
3807.000000	98.487721  
3806.000000	98.466545  
3805.000000	98.459012  
3804.000000	98.466480  
3803.000000	98.475829  
3802.000000	98.475587  
3801.000000	98.466615  
3800.000000	98.462731  
3799.000000	98.472245  
3798.000000	98.484479  
3797.000000	98.486745  
3796.000000	98.478612  
3795.000000	98.468784  
3794.000000	98.465266  
3793.000000	98.468374  
3792.000000	98.473345  
3791.000000	98.475899  
3790.000000	98.474534  
3789.000000	98.471474  
3788.000000	98.471651  
3787.000000	98.477470  
3786.000000	98.484058  
3785.000000	98.482501  
3784.000000	98.470235  
3783.000000	98.455470  
3782.000000	98.449030  
3781.000000	98.453727  
3780.000000	98.462603  
3779.000000	98.466515  
3778.000000	98.463625  
3777.000000	98.458328  
3776.000000	98.453092  
3775.000000	98.447130  
3774.000000	98.440782  
3773.000000	98.436081  
3772.000000	98.433388  
3771.000000	98.430775  
3770.000000	98.428456  
3769.000000	98.431522  
3768.000000	98.443802  
3767.000000	98.459244  
3766.000000	98.465497  
3765.000000	98.457722  
3764.000000	98.445051  
3763.000000	98.441544  
3762.000000	98.453095  
3761.000000	98.475037  
3760.000000	98.497749  
3759.000000	98.511442  
3758.000000	98.510869  
3757.000000	98.498256  
3756.000000	98.481971  
3755.000000	98.471408  
3754.000000	98.471299  
3753.000000	98.479468  
3752.000000	98.488043  
3751.000000	98.488486  
3750.000000	98.479487  
3749.000000	98.469091  
3748.000000	98.465235  
3747.000000	98.467112  
3746.000000	98.467844  
3745.000000	98.462230  
3744.000000	98.451445  
3743.000000	98.447870  
3742.000000	98.458060  
3741.000000	98.465274  
3740.000000	98.456199  
3739.000000	98.437318  
3738.000000	98.418940  
3737.000000	98.405175  
3736.000000	98.399247  
3735.000000	98.408746  
3734.000000	98.435382  
3733.000000	98.463954  
3732.000000	98.473610  
3731.000000	98.460132  
3730.000000	98.437799  
3729.000000	98.422924  
3728.000000	98.422641  
3727.000000	98.434126  
3726.000000	98.447980  
3725.000000	98.454981  
3724.000000	98.451572  
3723.000000	98.441359  
3722.000000	98.433420  
3721.000000	98.434879  
3720.000000	98.444438  
3719.000000	98.454632  
3718.000000	98.460053  
3717.000000	98.461851  
3716.000000	98.464537  
3715.000000	98.468995  
3714.000000	98.470623  
3713.000000	98.465077  
3712.000000	98.453682  
3711.000000	98.442447  
3710.000000	98.437177  
3709.000000	98.439818  
3708.000000	98.449199  
3707.000000	98.464110  
3706.000000	98.483155  
3705.000000	98.501783  
3704.000000	98.511241  
3703.000000	98.503067  
3702.000000	98.477794  
3701.000000	98.449263  
3700.000000	98.436093  
3699.000000	98.446243  
3698.000000	98.470638  
3697.000000	98.492671  
3696.000000	98.502776  
3695.000000	98.503571  
3694.000000	98.503446  
3693.000000	98.509007  
3692.000000	98.522808  
3691.000000	98.541338  
3690.000000	98.552872  
3689.000000	98.544594  
3688.000000	98.518329  
3687.000000	98.492043  
3686.000000	98.480980  
3685.000000	98.485862  
3684.000000	98.499073  
3683.000000	98.513614  
3682.000000	98.525712  
3681.000000	98.533428  
3680.000000	98.535508  
3679.000000	98.533334  
3678.000000	98.529640  
3677.000000	98.523753  
3676.000000	98.512369  
3675.000000	98.499234  
3674.000000	98.501062  
3673.000000	98.525980  
3672.000000	98.557745  
3671.000000	98.576485  
3670.000000	98.575438  
3669.000000	98.562255  
3668.000000	98.551952  
3667.000000	98.549262  
3666.000000	98.547999  
3665.000000	98.544305  
3664.000000	98.539061  
3663.000000	98.534313  
3662.000000	98.531939  
3661.000000	98.533822  
3660.000000	98.540406  
3659.000000	98.548191  
3658.000000	98.549515  
3657.000000	98.539388  
3656.000000	98.524325  
3655.000000	98.520935  
3654.000000	98.539521  
3653.000000	98.571755  
3652.000000	98.598813  
3651.000000	98.605950  
3650.000000	98.590446  
3649.000000	98.562526  
3648.000000	98.537232  
3647.000000	98.522743  
3646.000000	98.519439  
3645.000000	98.525651  
3644.000000	98.539345  
3643.000000	98.556493  
3642.000000	98.571245  
3641.000000	98.578969  
3640.000000	98.578874  
3639.000000	98.573543  
3638.000000	98.566502  
3637.000000	98.560373  
3636.000000	98.554794  
3635.000000	98.546634  
3634.000000	98.534439  
3633.000000	98.522601  
3632.000000	98.518542  
3631.000000	98.525547  
3630.000000	98.538848  
3629.000000	98.546762  
3628.000000	98.544999  
3627.000000	98.545945  
3626.000000	98.555851  
3625.000000	98.567085  
3624.000000	98.575780  
3623.000000	98.584310  
3622.000000	98.594282  
3621.000000	98.604699  
3620.000000	98.614018  
3619.000000	98.622060  
3618.000000	98.630294  
3617.000000	98.639120  
3616.000000	98.644345  
3615.000000	98.641239  
3614.000000	98.631300  
3613.000000	98.622015  
3612.000000	98.620241  
3611.000000	98.625581  
3610.000000	98.630425  
3609.000000	98.627517  
3608.000000	98.616922  
3607.000000	98.606034  
3606.000000	98.603592  
3605.000000	98.613238  
3604.000000	98.632287  
3603.000000	98.653655  
3602.000000	98.668971  
3601.000000	98.674247  
3600.000000	98.673731  
3599.000000	98.675807  
3598.000000	98.684397  
3597.000000	98.696967  
3596.000000	98.709243  
3595.000000	98.718928  
3594.000000	98.725211  
3593.000000	98.727344  
3592.000000	98.724857  
3591.000000	98.719033  
3590.000000	98.713611  
3589.000000	98.711636  
3588.000000	98.711303  
3587.000000	98.709465  
3586.000000	98.709727  
3585.000000	98.718126  
3584.000000	98.733375  
3583.000000	98.748617  
3582.000000	98.758753  
3581.000000	98.763807  
3580.000000	98.767421  
3579.000000	98.773007  
3578.000000	98.780834  
3577.000000	98.788453  
3576.000000	98.792937  
3575.000000	98.792010  
3574.000000	98.784655  
3573.000000	98.772383  
3572.000000	98.760609  
3571.000000	98.757419  
3570.000000	98.768646  
3569.000000	98.791275  
3568.000000	98.811474  
3567.000000	98.815913  
3566.000000	98.808399  
3565.000000	98.807017  
3564.000000	98.823111  
3563.000000	98.851843  
3562.000000	98.879717  
3561.000000	98.895545  
3560.000000	98.897295  
3559.000000	98.892136  
3558.000000	98.890165  
3557.000000	98.897004  
3556.000000	98.911183  
3555.000000	98.927320  
3554.000000	98.941404  
3553.000000	98.953813  
3552.000000	98.967928  
3551.000000	98.986036  
3550.000000	99.005845  
3549.000000	99.020460  
3548.000000	99.022854  
3547.000000	99.012508  
3546.000000	98.998683  
3545.000000	98.994791  
3544.000000	99.006562  
3543.000000	99.026477  
3542.000000	99.041419  
3541.000000	99.044939  
3540.000000	99.041044  
3539.000000	99.037852  
3538.000000	99.040338  
3537.000000	99.049531  
3536.000000	99.064970  
3535.000000	99.085184  
3534.000000	99.106468  
3533.000000	99.124100  
3532.000000	99.135405  
3531.000000	99.140896  
3530.000000	99.142448  
3529.000000	99.141390  
3528.000000	99.138618  
3527.000000	99.135353  
3526.000000	99.133198  
3525.000000	99.133954  
3524.000000	99.139931  
3523.000000	99.153382  
3522.000000	99.174312  
3521.000000	99.198276  
3520.000000	99.217252  
3519.000000	99.224860  
3518.000000	99.222210  
3517.000000	99.218068  
3516.000000	99.221322  
3515.000000	99.233243  
3514.000000	99.247631  
3513.000000	99.257764  
3512.000000	99.261407  
3511.000000	99.260070  
3510.000000	99.256474  
3509.000000	99.253789  
3508.000000	99.255068  
3507.000000	99.261215  
3506.000000	99.269981  
3505.000000	99.277645  
3504.000000	99.280786  
3503.000000	99.276710  
3502.000000	99.264860  
3501.000000	99.249069  
3500.000000	99.236811  
3499.000000	99.234472  
3498.000000	99.243334  
3497.000000	99.259754  
3496.000000	99.277862  
3495.000000	99.291626  
3494.000000	99.296731  
3493.000000	99.293340  
3492.000000	99.286376  
3491.000000	99.280805  
3490.000000	99.276562  
3489.000000	99.269697  
3488.000000	99.258588  
3487.000000	99.247437  
3486.000000	99.243452  
3485.000000	99.251271  
3484.000000	99.268926  
3483.000000	99.287040  
3482.000000	99.293414  
3481.000000	99.282896  
3480.000000	99.263372  
3479.000000	99.249146  
3478.000000	99.247242  
3477.000000	99.252111  
3476.000000	99.254290  
3475.000000	99.251658  
3474.000000	99.250252  
3473.000000	99.255726  
3472.000000	99.267528  
3471.000000	99.281190  
3470.000000	99.293183  
3469.000000	99.302414  
3468.000000	99.309511  
3467.000000	99.316818  
3466.000000	99.327580  
3465.000000	99.342241  
3464.000000	99.355629  
3463.000000	99.360784  
3462.000000	99.357563  
3461.000000	99.355590  
3460.000000	99.365809  
3459.000000	99.388657  
3458.000000	99.412191  
3457.000000	99.422818  
3456.000000	99.417172  
3455.000000	99.403657  
3454.000000	99.393837  
3453.000000	99.393797  
3452.000000	99.402749  
3451.000000	99.416451  
3450.000000	99.429459  
3449.000000	99.435411  
3448.000000	99.429284  
3447.000000	99.412219  
3446.000000	99.392934  
3445.000000	99.381337  
3444.000000	99.380309  
3443.000000	99.384764  
3442.000000	99.387934  
3441.000000	99.386967  
3440.000000	99.382733  
3439.000000	99.377069  
3438.000000	99.372160  
3437.000000	99.370519  
3436.000000	99.372360  
3435.000000	99.373572  
3434.000000	99.369073  
3433.000000	99.358952  
3432.000000	99.349372  
3431.000000	99.346504  
3430.000000	99.351044  
3429.000000	99.359307  
3428.000000	99.367877  
3427.000000	99.375675  
3426.000000	99.382678  
3425.000000	99.388364  
3424.000000	99.391275  
3423.000000	99.389389  
3422.000000	99.381691  
3421.000000	99.370205  
3420.000000	99.359470  
3419.000000	99.352860  
3418.000000	99.350066  
3417.000000	99.348844  
3416.000000	99.347798  
3415.000000	99.346098  
3414.000000	99.342096  
3413.000000	99.334928  
3412.000000	99.327428  
3411.000000	99.324746  
3410.000000	99.328823  
3409.000000	99.335576  
3408.000000	99.338603  
3407.000000	99.334801  
3406.000000	99.325419  
3405.000000	99.312653  
3404.000000	99.297269  
3403.000000	99.280089  
3402.000000	99.264319  
3401.000000	99.254642  
3400.000000	99.253493  
3399.000000	99.258899  
3398.000000	99.266090  
3397.000000	99.270444  
3396.000000	99.268837  
3395.000000	99.260251  
3394.000000	99.247400  
3393.000000	99.237125  
3392.000000	99.236348  
3391.000000	99.246061  
3390.000000	99.259932  
3389.000000	99.268985  
3388.000000	99.267374  
3387.000000	99.255147  
3386.000000	99.238185  
3385.000000	99.225398  
3384.000000	99.222675  
3383.000000	99.227608  
3382.000000	99.231720  
3381.000000	99.229518  
3380.000000	99.224391  
3379.000000	99.224744  
3378.000000	99.235349  
3377.000000	99.253251  
3376.000000	99.270468  
3375.000000	99.279379  
3374.000000	99.277212  
3373.000000	99.267792  
3372.000000	99.258895  
3371.000000	99.256218  
3370.000000	99.259340  
3369.000000	99.263531  
3368.000000	99.264899  
3367.000000	99.263571  
3366.000000	99.263100  
3365.000000	99.267305  
3364.000000	99.276309  
3363.000000	99.284892  
3362.000000	99.286244  
3361.000000	99.278693  
3360.000000	99.267355  
3359.000000	99.257965  
3358.000000	99.250598  
3357.000000	99.241430  
3356.000000	99.229291  
3355.000000	99.217553  
3354.000000	99.209450  
3353.000000	99.204164  
3352.000000	99.198674  
3351.000000	99.192144  
3350.000000	99.187339  
3349.000000	99.187816  
3348.000000	99.193806  
3347.000000	99.200557  
3346.000000	99.201304  
3345.000000	99.193159  
3344.000000	99.180761  
3343.000000	99.173661  
3342.000000	99.178775  
3341.000000	99.193818  
3340.000000	99.207425  
3339.000000	99.207455  
3338.000000	99.191863  
3337.000000	99.171627  
3336.000000	99.160774  
3335.000000	99.162563  
3334.000000	99.167057  
3333.000000	99.162190  
3332.000000	99.144616  
3331.000000	99.119673  
3330.000000	99.095409  
3329.000000	99.080005  
3328.000000	99.081029  
3327.000000	99.100491  
3326.000000	99.129812  
3325.000000	99.154215  
3324.000000	99.163988  
3323.000000	99.159543  
3322.000000	99.145823  
3321.000000	99.126414  
3320.000000	99.105008  
3319.000000	99.087796  
3318.000000	99.079039  
3317.000000	99.075242  
3316.000000	99.068393  
3315.000000	99.055939  
3314.000000	99.044172  
3313.000000	99.039935  
3312.000000	99.041696  
3311.000000	99.041277  
3310.000000	99.032681  
3309.000000	99.016211  
3308.000000	98.994918  
3307.000000	98.971177  
3306.000000	98.947958  
3305.000000	98.929976  
3304.000000	98.920501  
3303.000000	98.918300  
3302.000000	98.919684  
3301.000000	98.921973  
3300.000000	98.922482  
3299.000000	98.916038  
3298.000000	98.898113  
3297.000000	98.871263  
3296.000000	98.845005  
3295.000000	98.827064  
3294.000000	98.816004  
3293.000000	98.803577  
3292.000000	98.783395  
3291.000000	98.757097  
3290.000000	98.733213  
3289.000000	98.719959  
3288.000000	98.717386  
3287.000000	98.716097  
3286.000000	98.705254  
3285.000000	98.682363  
3284.000000	98.654149  
3283.000000	98.628782  
3282.000000	98.609974  
3281.000000	98.598093  
3280.000000	98.592597  
3279.000000	98.591410  
3278.000000	98.591125  
3277.000000	98.590336  
3276.000000	98.590827  
3275.000000	98.593784  
3274.000000	98.596924  
3273.000000	98.596837  
3272.000000	98.591329  
3271.000000	98.577587  
3270.000000	98.551748  
3269.000000	98.514471  
3268.000000	98.475149  
3267.000000	98.446013  
3266.000000	98.431598  
3265.000000	98.426320  
3264.000000	98.421942  
3263.000000	98.414869  
3262.000000	98.406581  
3261.000000	98.399936  
3260.000000	98.395593  
3259.000000	98.390007  
3258.000000	98.376621  
3257.000000	98.350934  
3256.000000	98.315306  
3255.000000	98.278001  
3254.000000	98.247290  
3253.000000	98.226714  
3252.000000	98.214786  
3251.000000	98.207339  
3250.000000	98.200158  
3249.000000	98.190792  
3248.000000	98.178246  
3247.000000	98.160862  
3246.000000	98.135910  
3245.000000	98.103054  
3244.000000	98.067790  
3243.000000	98.039464  
3242.000000	98.024680  
3241.000000	98.022076  
3240.000000	98.022626  
3239.000000	98.015279  
3238.000000	97.994221  
3237.000000	97.962041  
3236.000000	97.925704  
3235.000000	97.889893  
3234.000000	97.855629  
3233.000000	97.824354  
3232.000000	97.799460  
3231.000000	97.782139  
3230.000000	97.768825  
3229.000000	97.755277  
3228.000000	97.741159  
3227.000000	97.728321  
3226.000000	97.716799  
3225.000000	97.705294  
3224.000000	97.693480  
3223.000000	97.680209  
3222.000000	97.660857  
3221.000000	97.630881  
