PE IR                   SPECTRUM    ASCII       PEDS        1.60        
  -1
~SP.SP
18/04/18
12:46:52.00
18/04/18
12:46:52.00
Claudia

650.000000
16









SPECTRUM 100,CPU32 MAIN 00.02.8200 12-DECEMBER-2006 10:00:00
MIR TGS
MIR
OPTKBR
78890
0.200000

4.000000
STRONG
RATIO
SPECTRUM
MAGNITUDE
UNIVERSAL ATR
DOUBLE

COMBINED


0


#HDR
-1
-1
#GR
CM-1
%T
0.00002384185791015625
0.0
4000.000000
-1.000000
3351
8
97.771370
28.379649
#DATA
4000.000000	97.473233 
3999.000000	97.477212 
3998.000000	97.494034 
3997.000000	97.508355 
3996.000000	97.522122 
3995.000000	97.530596 
3994.000000	97.532762 
3993.000000	97.531215 
3992.000000	97.529259 
3991.000000	97.528249 
3990.000000	97.527586 
3989.000000	97.526162 
3988.000000	97.523427 
3987.000000	97.519474 
3986.000000	97.514516 
3985.000000	97.508561 
3984.000000	97.501852 
3983.000000	97.495652 
3982.000000	97.492260 
3981.000000	97.493741 
3980.000000	97.500339 
3979.000000	97.510245 
3978.000000	97.520663 
3977.000000	97.529007 
3976.000000	97.533798 
3975.000000	97.535204 
3974.000000	97.534839 
3973.000000	97.534583 
3972.000000	97.535334 
3971.000000	97.536940 
3970.000000	97.538770 
3969.000000	97.540362 
3968.000000	97.541998 
3967.000000	97.544699 
3966.000000	97.549335 
3965.000000	97.555331 
3964.000000	97.560623 
3963.000000	97.563731 
3962.000000	97.565788 
3961.000000	97.569416 
3960.000000	97.575405 
3959.000000	97.581590 
3958.000000	97.585075 
3957.000000	97.585301 
3956.000000	97.584691 
3955.000000	97.586157 
3954.000000	97.590468 
3953.000000	97.595466 
3952.000000	97.597760 
3951.000000	97.595313 
3950.000000	97.588669 
3949.000000	97.580866 
3948.000000	97.575808 
3947.000000	97.576254 
3946.000000	97.582496 
3945.000000	97.592010 
3944.000000	97.600526 
3943.000000	97.604556 
3942.000000	97.604109 
3941.000000	97.601979 
3940.000000	97.600433 
3939.000000	97.599843 
3938.000000	97.599667 
3937.000000	97.599572 
3936.000000	97.599480 
3935.000000	97.598778 
3934.000000	97.596934 
3933.000000	97.594370 
3932.000000	97.592715 
3931.000000	97.593181 
3930.000000	97.595421 
3929.000000	97.598810 
3928.000000	97.603078 
3927.000000	97.607333 
3926.000000	97.609714 
3925.000000	97.608556 
3924.000000	97.604092 
3923.000000	97.597768 
3922.000000	97.589936 
3921.000000	97.580535 
3920.000000	97.570943 
3919.000000	97.563936 
3918.000000	97.561038 
3917.000000	97.561140 
3916.000000	97.562635 
3915.000000	97.565423 
3914.000000	97.569955 
3913.000000	97.575734 
3912.000000	97.581643 
3911.000000	97.587637 
3910.000000	97.594107 
3909.000000	97.600645 
3908.000000	97.606526 
3907.000000	97.611039 
3906.000000	97.613166 
3905.000000	97.610409 
3904.000000	97.601407 
3903.000000	97.589981 
3902.000000	97.582518 
3901.000000	97.581779 
3900.000000	97.586165 
3899.000000	97.593645 
3898.000000	97.604586 
3897.000000	97.619166 
3896.000000	97.634549 
3895.000000	97.646964 
3894.000000	97.654007 
3893.000000	97.654362 
3892.000000	97.647261 
3891.000000	97.634368 
3890.000000	97.620533 
3889.000000	97.609951 
3888.000000	97.604606 
3887.000000	97.604255 
3886.000000	97.607273 
3885.000000	97.612100 
3884.000000	97.616918 
3883.000000	97.618956 
3882.000000	97.616756 
3881.000000	97.612979 
3880.000000	97.613532 
3879.000000	97.620109 
3878.000000	97.628438 
3877.000000	97.634510 
3876.000000	97.638817 
3875.000000	97.643772 
3874.000000	97.650231 
3873.000000	97.656670 
3872.000000	97.659972 
3871.000000	97.656672 
3870.000000	97.647631 
3869.000000	97.640937 
3868.000000	97.641814 
3867.000000	97.646274 
3866.000000	97.648440 
3865.000000	97.647994 
3864.000000	97.648884 
3863.000000	97.652267 
3862.000000	97.653729 
3861.000000	97.650764 
3860.000000	97.646013 
3859.000000	97.641811 
3858.000000	97.636219 
3857.000000	97.627133 
3856.000000	97.618204 
3855.000000	97.615986 
3854.000000	97.614749 
3853.000000	97.608672 
3852.000000	97.605155 
3851.000000	97.608648 
3850.000000	97.614789 
3849.000000	97.621041 
3848.000000	97.627328 
3847.000000	97.633721 
3846.000000	97.638695 
3845.000000	97.640556 
3844.000000	97.639999 
3843.000000	97.639681 
3842.000000	97.640605 
3841.000000	97.642130 
3840.000000	97.644223 
3839.000000	97.648416 
3838.000000	97.655704 
3837.000000	97.663545 
3836.000000	97.668022 
3835.000000	97.667665 
3834.000000	97.663382 
3833.000000	97.656995 
3832.000000	97.650400 
3831.000000	97.645360 
3830.000000	97.642641 
3829.000000	97.640973 
3828.000000	97.638628 
3827.000000	97.636553 
3826.000000	97.637473 
3825.000000	97.642220 
3824.000000	97.648502 
3823.000000	97.653145 
3822.000000	97.652938 
3821.000000	97.649167 
3820.000000	97.648957 
3819.000000	97.654252 
3818.000000	97.659235 
3817.000000	97.658802 
3816.000000	97.655611 
3815.000000	97.657646 
3814.000000	97.666950 
3813.000000	97.677475 
3812.000000	97.683306 
3811.000000	97.683715 
3810.000000	97.680772 
3809.000000	97.675421 
3808.000000	97.666424 
3807.000000	97.655022 
3806.000000	97.646006 
3805.000000	97.641932 
3804.000000	97.640857 
3803.000000	97.640678 
3802.000000	97.640963 
3801.000000	97.644149 
3800.000000	97.652000 
3799.000000	97.660319 
3798.000000	97.664126 
3797.000000	97.664400 
3796.000000	97.666364 
3795.000000	97.672726 
3794.000000	97.680756 
3793.000000	97.686623 
3792.000000	97.689800 
3791.000000	97.691901 
3790.000000	97.692829 
3789.000000	97.690640 
3788.000000	97.685361 
3787.000000	97.680853 
3786.000000	97.681838 
3785.000000	97.689097 
3784.000000	97.698093 
3783.000000	97.702147 
3782.000000	97.696939 
3781.000000	97.683363 
3780.000000	97.667521 
3779.000000	97.658087 
3778.000000	97.659705 
3777.000000	97.669446 
3776.000000	97.680650 
3775.000000	97.688693 
3774.000000	97.692392 
3773.000000	97.692356 
3772.000000	97.689844 
3771.000000	97.686787 
3770.000000	97.685462 
3769.000000	97.687162 
3768.000000	97.690784 
3767.000000	97.693660 
3766.000000	97.695057 
3765.000000	97.696394 
3764.000000	97.697860 
3763.000000	97.697147 
3762.000000	97.692157 
3761.000000	97.684068 
3760.000000	97.676083 
3759.000000	97.670159 
3758.000000	97.664340 
3757.000000	97.655290 
3756.000000	97.642867 
3755.000000	97.630185 
3754.000000	97.620068 
3753.000000	97.612500 
3752.000000	97.605324 
3751.000000	97.597824 
3750.000000	97.592962 
3749.000000	97.590837 
3748.000000	97.586610 
3747.000000	97.575804 
3746.000000	97.558411 
3745.000000	97.539357 
3744.000000	97.531546 
3743.000000	97.540933 
3742.000000	97.555028 
3741.000000	97.558865 
3740.000000	97.549519 
3739.000000	97.534977 
3738.000000	97.525540 
3737.000000	97.524542 
3736.000000	97.528529 
3735.000000	97.532814 
3734.000000	97.532428 
3733.000000	97.522971 
3732.000000	97.506590 
3731.000000	97.491489 
3730.000000	97.483590 
3729.000000	97.482286 
3728.000000	97.484526 
3727.000000	97.488530 
3726.000000	97.493620 
3725.000000	97.498775 
3724.000000	97.503741 
3723.000000	97.511004 
3722.000000	97.523972 
3721.000000	97.544222 
3720.000000	97.569872 
3719.000000	97.597542 
3718.000000	97.623941 
3717.000000	97.644352 
3716.000000	97.653276 
3715.000000	97.646047 
3714.000000	97.622145 
3713.000000	97.588332 
3712.000000	97.556304 
3711.000000	97.537633 
3710.000000	97.536067 
3709.000000	97.546707 
3708.000000	97.562411 
3707.000000	97.577248 
3706.000000	97.587900 
3705.000000	97.593753 
3704.000000	97.596349 
3703.000000	97.598129 
3702.000000	97.600548 
3701.000000	97.604372 
3700.000000	97.609593 
3699.000000	97.614743 
3698.000000	97.618268 
3697.000000	97.619390 
3696.000000	97.618311 
3695.000000	97.615909 
3694.000000	97.614335 
3693.000000	97.618317 
3692.000000	97.633032 
3691.000000	97.657821 
3690.000000	97.680713 
3689.000000	97.688733 
3688.000000	97.683644 
3687.000000	97.677456 
3686.000000	97.678478 
3685.000000	97.687207 
3684.000000	97.699120 
3683.000000	97.708957 
3682.000000	97.713449 
3681.000000	97.710951 
3680.000000	97.701659 
3679.000000	97.688797 
3678.000000	97.678893 
3677.000000	97.677615 
3676.000000	97.682708 
3675.000000	97.691450 
3674.000000	97.703997 
3673.000000	97.716983 
3672.000000	97.725704 
3671.000000	97.729814 
3670.000000	97.732301 
3669.000000	97.738563 
3668.000000	97.749898 
3667.000000	97.760855 
3666.000000	97.766582 
3665.000000	97.766650 
3664.000000	97.763364 
3663.000000	97.759227 
3662.000000	97.755337 
3661.000000	97.751533 
3660.000000	97.748426 
3659.000000	97.747750 
3658.000000	97.751038 
3657.000000	97.757300 
3656.000000	97.764340 
3655.000000	97.770229 
3654.000000	97.771370 
3653.000000	97.763853 
3652.000000	97.747210 
3651.000000	97.725646 
3650.000000	97.704257 
3649.000000	97.688049 
3648.000000	97.681535 
3647.000000	97.684804 
3646.000000	97.692838 
3645.000000	97.699366 
3644.000000	97.699861 
3643.000000	97.693331 
3642.000000	97.682687 
3641.000000	97.672386 
3640.000000	97.665847 
3639.000000	97.663492 
3638.000000	97.663192 
3637.000000	97.661260 
3636.000000	97.653905 
3635.000000	97.640110 
3634.000000	97.623119 
3633.000000	97.607933 
3632.000000	97.596610 
3631.000000	97.586465 
3630.000000	97.571946 
3629.000000	97.552004 
3628.000000	97.535964 
3627.000000	97.530379 
3626.000000	97.531921 
3625.000000	97.538012 
3624.000000	97.551220 
3623.000000	97.573446 
3622.000000	97.600827 
3621.000000	97.624101 
3620.000000	97.633957 
3619.000000	97.630278 
3618.000000	97.624354 
3617.000000	97.626965 
3616.000000	97.639293 
3615.000000	97.654673 
3614.000000	97.664164 
3613.000000	97.663200 
3612.000000	97.653713 
3611.000000	97.639269 
3610.000000	97.622272 
3609.000000	97.606515 
3608.000000	97.597258 
3607.000000	97.596492 
3606.000000	97.600088 
3605.000000	97.602379 
3604.000000	97.601659 
3603.000000	97.599687 
3602.000000	97.598820 
3601.000000	97.600663 
3600.000000	97.605778 
3599.000000	97.612661 
3598.000000	97.617752 
3597.000000	97.617267 
3596.000000	97.610834 
3595.000000	97.602112 
3594.000000	97.595540 
3593.000000	97.593368 
3592.000000	97.596062 
3591.000000	97.604522 
3590.000000	97.620439 
3589.000000	97.642445 
3588.000000	97.662777 
3587.000000	97.672960 
3586.000000	97.672169 
3585.000000	97.665641 
3584.000000	97.659101 
3583.000000	97.655233 
3582.000000	97.654529 
3581.000000	97.656218 
3580.000000	97.658986 
3579.000000	97.661345 
3578.000000	97.662711 
3577.000000	97.664341 
3576.000000	97.667683 
3575.000000	97.672381 
3574.000000	97.675901 
3573.000000	97.676271 
3572.000000	97.673931 
3571.000000	97.670605 
3570.000000	97.667252 
3569.000000	97.663776 
3568.000000	97.659987 
3567.000000	97.656712 
3566.000000	97.655547 
3565.000000	97.656939 
3564.000000	97.659691 
3563.000000	97.661607 
3562.000000	97.660064 
3561.000000	97.653991 
3560.000000	97.646374 
3559.000000	97.642998 
3558.000000	97.647668 
3557.000000	97.658967 
3556.000000	97.671705 
3555.000000	97.680913 
3554.000000	97.684711 
3553.000000	97.684297 
3552.000000	97.682636 
3551.000000	97.682112 
3550.000000	97.682872 
3549.000000	97.683212 
3548.000000	97.681295 
3547.000000	97.676429 
3546.000000	97.670322 
3545.000000	97.667085 
3544.000000	97.670524 
3543.000000	97.679980 
3542.000000	97.689083 
3541.000000	97.690755 
3540.000000	97.684118 
3539.000000	97.675727 
3538.000000	97.673513 
3537.000000	97.679501 
3536.000000	97.688753 
3535.000000	97.694253 
3534.000000	97.692677 
3533.000000	97.686131 
3532.000000	97.679630 
3531.000000	97.676735 
3530.000000	97.676619 
3529.000000	97.675395 
3528.000000	97.670489 
3527.000000	97.663076 
3526.000000	97.656404 
3525.000000	97.653097 
3524.000000	97.654207 
3523.000000	97.659400 
3522.000000	97.666834 
3521.000000	97.673161 
3520.000000	97.675014 
3519.000000	97.671010 
3518.000000	97.662988 
3517.000000	97.654761 
3516.000000	97.649518 
3515.000000	97.648313 
3514.000000	97.650580 
3513.000000	97.654953 
3512.000000	97.658737 
3511.000000	97.657851 
3510.000000	97.650201 
3509.000000	97.639800 
3508.000000	97.634987 
3507.000000	97.640580 
3506.000000	97.652861 
3505.000000	97.662661 
3504.000000	97.663009 
3503.000000	97.653718 
3502.000000	97.639770 
3501.000000	97.627021 
3500.000000	97.619160 
3499.000000	97.616425 
3498.000000	97.616172 
3497.000000	97.616178 
3496.000000	97.617687 
3495.000000	97.623637 
3494.000000	97.633610 
3493.000000	97.642542 
3492.000000	97.645716 
3491.000000	97.643410 
3490.000000	97.639527 
3489.000000	97.636700 
3488.000000	97.634286 
3487.000000	97.630776 
3486.000000	97.626303 
3485.000000	97.622242 
3484.000000	97.619797 
3483.000000	97.619830 
3482.000000	97.622937 
3481.000000	97.628086 
3480.000000	97.631480 
3479.000000	97.628437 
3478.000000	97.617357 
3477.000000	97.601498 
3476.000000	97.586341 
3475.000000	97.575662 
3474.000000	97.570088 
3473.000000	97.568185 
3472.000000	97.567756 
3471.000000	97.566901 
3470.000000	97.565486 
3469.000000	97.565611 
3468.000000	97.569248 
3467.000000	97.575250 
3466.000000	97.579986 
3465.000000	97.581163 
3464.000000	97.579911 
3463.000000	97.578898 
3462.000000	97.579431 
3461.000000	97.580866 
3460.000000	97.581839 
3459.000000	97.581502 
3458.000000	97.580196 
3457.000000	97.579046 
3456.000000	97.578865 
3455.000000	97.579335 
3454.000000	97.580255 
3453.000000	97.583040 
3452.000000	97.589320 
3451.000000	97.597644 
3450.000000	97.602893 
3449.000000	97.600769 
3448.000000	97.592784 
3447.000000	97.585961 
3446.000000	97.586604 
3445.000000	97.594626 
3444.000000	97.604292 
3443.000000	97.609703 
3442.000000	97.609435 
3441.000000	97.606340 
3440.000000	97.603658 
3439.000000	97.602079 
3438.000000	97.600371 
3437.000000	97.597593 
3436.000000	97.594321 
3435.000000	97.592348 
3434.000000	97.594137 
3433.000000	97.601445 
3432.000000	97.612788 
3431.000000	97.622752 
3430.000000	97.625694 
3429.000000	97.621142 
3428.000000	97.614405 
3427.000000	97.611100 
3426.000000	97.611986 
3425.000000	97.613828 
3424.000000	97.614088 
3423.000000	97.613293 
3422.000000	97.613124 
3421.000000	97.613483 
3420.000000	97.612400 
3419.000000	97.608666 
3418.000000	97.604166 
3417.000000	97.602922 
3416.000000	97.607019 
3415.000000	97.613741 
3414.000000	97.617795 
3413.000000	97.616620 
3412.000000	97.612551 
3411.000000	97.609581 
3410.000000	97.609400 
3409.000000	97.611154 
3408.000000	97.613407 
3407.000000	97.615075 
3406.000000	97.615529 
3405.000000	97.615136 
3404.000000	97.615345 
3403.000000	97.617147 
3402.000000	97.620008 
3401.000000	97.623019 
3400.000000	97.626256 
3399.000000	97.629896 
3398.000000	97.632584 
3397.000000	97.632071 
3396.000000	97.627515 
3395.000000	97.620621 
3394.000000	97.614533 
3393.000000	97.611725 
3392.000000	97.612258 
3391.000000	97.613755 
3390.000000	97.613762 
3389.000000	97.612312 
3388.000000	97.611548 
3387.000000	97.612840 
3386.000000	97.615419 
3385.000000	97.617788 
3384.000000	97.619155 
3383.000000	97.619095 
3382.000000	97.617518 
3381.000000	97.615700 
3380.000000	97.615791 
3379.000000	97.618459 
3378.000000	97.622153 
3377.000000	97.625329 
3376.000000	97.627552 
3375.000000	97.627516 
3374.000000	97.622333 
3373.000000	97.611132 
3372.000000	97.598287 
3371.000000	97.590720 
3370.000000	97.591739 
3369.000000	97.598529 
3368.000000	97.605374 
3367.000000	97.608352 
3366.000000	97.607468 
3365.000000	97.605522 
3364.000000	97.605056 
3363.000000	97.605955 
3362.000000	97.606154 
3361.000000	97.604652 
3360.000000	97.602745 
3359.000000	97.601757 
3358.000000	97.600745 
3357.000000	97.597774 
3356.000000	97.592874 
3355.000000	97.588541 
3354.000000	97.587283 
3353.000000	97.589392 
3352.000000	97.592879 
3351.000000	97.594993 
3350.000000	97.593941 
3349.000000	97.589745 
3348.000000	97.583874 
3347.000000	97.578259 
3346.000000	97.574747 
3345.000000	97.574388 
3344.000000	97.576148 
3343.000000	97.576859 
3342.000000	97.573950 
3341.000000	97.568149 
3340.000000	97.562122 
3339.000000	97.556681 
3338.000000	97.550155 
3337.000000	97.541440 
3336.000000	97.531432 
3335.000000	97.521001 
3334.000000	97.510121 
3333.000000	97.500238 
3332.000000	97.495093 
3331.000000	97.496853 
3330.000000	97.502331 
3329.000000	97.504976 
3328.000000	97.500555 
3327.000000	97.490178 
3326.000000	97.478554 
3325.000000	97.470070 
3324.000000	97.465595 
3323.000000	97.461889 
3322.000000	97.454699 
3321.000000	97.443237 
3320.000000	97.431092 
3319.000000	97.422134 
3318.000000	97.416194 
3317.000000	97.409211 
3316.000000	97.396832 
3315.000000	97.377670 
3314.000000	97.354404 
3313.000000	97.332360 
3312.000000	97.315886 
3311.000000	97.305162 
3310.000000	97.296874 
3309.000000	97.287669 
3308.000000	97.275528 
3307.000000	97.258217 
3306.000000	97.233279 
3305.000000	97.200911 
3304.000000	97.164907 
3303.000000	97.129258 
3302.000000	97.095252 
3301.000000	97.062767 
3300.000000	97.032302 
3299.000000	97.003816 
3298.000000	96.975383 
3297.000000	96.945357 
3296.000000	96.914886 
3295.000000	96.886163 
3294.000000	96.858689 
3293.000000	96.829159 
3292.000000	96.794962 
3291.000000	96.756661 
3290.000000	96.717595 
3289.000000	96.682302 
3288.000000	96.654564 
3287.000000	96.635063 
3286.000000	96.620495 
3285.000000	96.605871 
3284.000000	96.587882 
3283.000000	96.566203 
3282.000000	96.542731 
3281.000000	96.520407 
3280.000000	96.501797 
3279.000000	96.487390 
3278.000000	96.475461 
3277.000000	96.464141 
3276.000000	96.453010 
3275.000000	96.442188 
3274.000000	96.430812 
3273.000000	96.417242 
3272.000000	96.400041 
3271.000000	96.378166 
3270.000000	96.351269 
3269.000000	96.320764 
3268.000000	96.289739 
3267.000000	96.260860 
3266.000000	96.234811 
3265.000000	96.211037 
3264.000000	96.188671 
3263.000000	96.166206 
3262.000000	96.141883 
3261.000000	96.115725 
3260.000000	96.090084 
3259.000000	96.066887 
3258.000000	96.045381 
3257.000000	96.023598 
3256.000000	96.000752 
3255.000000	95.976553 
3254.000000	95.949421 
3253.000000	95.917593 
3252.000000	95.881974 
3251.000000	95.846059 
3250.000000	95.812468 
3249.000000	95.780644 
3248.000000	95.748327 
3247.000000	95.714419 
3246.000000	95.679674 
3245.000000	95.644934 
3244.000000	95.609576 
3243.000000	95.572368 
3242.000000	95.533402 
3241.000000	95.494032 
3240.000000	95.454605 
3239.000000	95.413703 
3238.000000	95.370716 
3237.000000	95.327914 
3236.000000	95.288279 
3235.000000	95.251912 
3234.000000	95.216366 
3233.000000	95.179833 
3232.000000	95.141958 
3231.000000	95.101975 
3230.000000	95.058371 
3229.000000	95.010865 
3228.000000	94.961061 
3227.000000	94.911011 
3226.000000	94.862650 
3225.000000	94.818130 
3224.000000	94.778272 
3223.000000	94.740669 
3222.000000	94.701642 
3221.000000	94.660614 
3220.000000	94.620392 
3219.000000	94.582777 
3218.000000	94.546104 
3217.000000	94.507489 
3216.000000	94.465174 
3215.000000	94.418367 
3214.000000	94.367562 
3213.000000	94.316005 
3212.000000	94.268362 
3211.000000	94.226524 
3210.000000	94.188089 
3209.000000	94.149447 
3208.000000	94.108374 
3207.000000	94.063452 
3206.000000	94.014074 
3205.000000	93.962429 
3204.000000	93.912635 
3203.000000	93.865666 
3202.000000	93.816976 
3201.000000	93.761337 
3200.000000	93.698923 
3199.000000	93.634904 
3198.000000	93.573784 
3197.000000	93.515380 
3196.000000	93.455629 
3195.000000	93.390270 
3194.000000	93.318251 
3193.000000	93.242020 
3192.000000	93.164049 
3191.000000	93.083530 
3190.000000	92.997945 
3189.000000	92.907508 
