PE IR                   SPECTRUM    ASCII       PEDS        1.60        
  -1
~SP.SP
18/03/23
17:11:00.00
18/03/23
17:11:00.00
pili
Irradiada
650.000000
4









SPECTRUM 100,CPU32 MAIN 00.02.8200 12-DECEMBER-2006 10:00:00
MIR TGS
MIR
OPTKBR
78890
0.200000

4.000000
STRONG
RATIO
SPECTRUM
MAGNITUDE
UNIVERSAL ATR
DOUBLE

COMBINED


0


#HDR
-1
-1
#GR
CM-1
%T
0.00002384185791015625
0.0
4000.000000
-1.000000
3351
8
99.082808
41.415697
#DATA
4000.000000	98.411157 
3999.000000	98.414718 
3998.000000	98.414634 
3997.000000	98.415296 
3996.000000	98.418290 
3995.000000	98.422744 
3994.000000	98.429306 
3993.000000	98.441164 
3992.000000	98.459461 
3991.000000	98.478775 
3990.000000	98.489348 
3989.000000	98.484589 
3988.000000	98.466422 
3987.000000	98.443452 
3986.000000	98.424654 
3985.000000	98.414460 
3984.000000	98.411812 
3983.000000	98.412364 
3982.000000	98.411733 
3981.000000	98.408194 
3980.000000	98.403389 
3979.000000	98.400327 
3978.000000	98.400399 
3977.000000	98.402367 
3976.000000	98.404333 
3975.000000	98.406031 
3974.000000	98.408408 
3973.000000	98.411317 
3972.000000	98.413013 
3971.000000	98.412634 
3970.000000	98.412393 
3969.000000	98.416172 
3968.000000	98.425846 
3967.000000	98.439612 
3966.000000	98.453855 
3965.000000	98.465809 
3964.000000	98.473883 
3963.000000	98.476359 
3962.000000	98.471576 
3961.000000	98.460354 
3960.000000	98.447395 
3959.000000	98.438685 
3958.000000	98.436774 
3957.000000	98.439094 
3956.000000	98.441294 
3955.000000	98.441752 
3954.000000	98.442134 
3953.000000	98.444170 
3952.000000	98.447347 
3951.000000	98.450392 
3950.000000	98.454017 
3949.000000	98.460688 
3948.000000	98.471227 
3947.000000	98.482503 
3946.000000	98.489275 
3945.000000	98.488452 
3944.000000	98.482046 
3943.000000	98.475930 
3942.000000	98.475053 
3941.000000	98.479325 
3940.000000	98.484206 
3939.000000	98.484842 
3938.000000	98.480000 
3937.000000	98.472510 
3936.000000	98.466152 
3935.000000	98.461915 
3934.000000	98.457273 
3933.000000	98.449578 
3932.000000	98.440017 
3931.000000	98.433132 
3930.000000	98.431857 
3929.000000	98.434409 
3928.000000	98.436770 
3927.000000	98.437331 
3926.000000	98.438086 
3925.000000	98.441207 
3924.000000	98.445587 
3923.000000	98.447802 
3922.000000	98.445388 
3921.000000	98.438672 
3920.000000	98.430617 
3919.000000	98.425549 
3918.000000	98.426812 
3917.000000	98.434365 
3916.000000	98.444672 
3915.000000	98.453234 
3914.000000	98.457339 
3913.000000	98.457064 
3912.000000	98.455001 
3911.000000	98.454646 
3910.000000	98.457994 
3909.000000	98.463678 
3908.000000	98.467781 
3907.000000	98.466617 
3906.000000	98.459988 
3905.000000	98.452884 
3904.000000	98.453187 
3903.000000	98.465247 
3902.000000	98.484556 
3901.000000	98.499463 
3900.000000	98.500256 
3899.000000	98.487863 
3898.000000	98.472533 
3897.000000	98.463798 
3896.000000	98.463310 
3895.000000	98.466654 
3894.000000	98.469602 
3893.000000	98.471886 
3892.000000	98.475632 
3891.000000	98.480501 
3890.000000	98.482891 
3889.000000	98.479896 
3888.000000	98.472713 
3887.000000	98.466861 
3886.000000	98.468513 
3885.000000	98.477711 
3884.000000	98.487422 
3883.000000	98.490620 
3882.000000	98.486047 
3881.000000	98.478220 
3880.000000	98.473190 
3879.000000	98.473238 
3878.000000	98.476212 
3877.000000	98.478938 
3876.000000	98.480515 
3875.000000	98.482338 
3874.000000	98.485561 
3873.000000	98.489617 
3872.000000	98.492950 
3871.000000	98.493757 
3870.000000	98.490397 
3869.000000	98.482829 
3868.000000	98.474040 
3867.000000	98.468033 
3866.000000	98.465896 
3865.000000	98.464871 
3864.000000	98.461814 
3863.000000	98.457395 
3862.000000	98.455694 
3861.000000	98.459261 
3860.000000	98.466717 
3859.000000	98.474855 
3858.000000	98.481923 
3857.000000	98.487336 
3856.000000	98.489321 
3855.000000	98.487205 
3854.000000	98.486069 
3853.000000	98.489538 
3852.000000	98.492631 
3851.000000	98.491410 
3850.000000	98.488345 
3849.000000	98.487694 
3848.000000	98.490382 
3847.000000	98.493737 
3846.000000	98.494990 
3845.000000	98.493853 
3844.000000	98.491901 
3843.000000	98.489801 
3842.000000	98.486426 
3841.000000	98.480860 
3840.000000	98.474796 
3839.000000	98.471807 
3838.000000	98.474006 
3837.000000	98.479798 
3836.000000	98.486007 
3835.000000	98.491294 
3834.000000	98.495641 
3833.000000	98.497846 
3832.000000	98.495401 
3831.000000	98.487192 
3830.000000	98.475416 
3829.000000	98.464989 
3828.000000	98.461262 
3827.000000	98.466405 
3826.000000	98.476607 
3825.000000	98.484249 
3824.000000	98.484106 
3823.000000	98.477774 
3822.000000	98.472966 
3821.000000	98.474732 
3820.000000	98.478916 
3819.000000	98.479971 
3818.000000	98.478533 
3817.000000	98.480071 
3816.000000	98.488799 
3815.000000	98.501808 
3814.000000	98.511561 
3813.000000	98.513416 
3812.000000	98.507676 
3811.000000	98.497708 
3810.000000	98.488242 
3809.000000	98.484007 
3808.000000	98.487535 
3807.000000	98.497029 
3806.000000	98.507133 
3805.000000	98.513914 
3804.000000	98.517559 
3803.000000	98.519900 
3802.000000	98.521861 
3801.000000	98.521914 
3800.000000	98.517424 
3799.000000	98.508118 
3798.000000	98.496543 
3797.000000	98.485917 
3796.000000	98.478270 
3795.000000	98.474516 
3794.000000	98.475135 
3793.000000	98.480541 
3792.000000	98.490432 
3791.000000	98.502470 
3790.000000	98.512218 
3789.000000	98.515792 
3788.000000	98.513137 
3787.000000	98.508594 
3786.000000	98.507168 
3785.000000	98.509616 
3784.000000	98.512205 
3783.000000	98.511649 
3782.000000	98.509137 
3781.000000	98.508977 
3780.000000	98.513510 
3779.000000	98.519354 
3778.000000	98.520030 
3777.000000	98.512003 
3776.000000	98.497049 
3775.000000	98.480090 
3774.000000	98.465778 
3773.000000	98.455999 
3772.000000	98.449718 
3771.000000	98.445016 
3770.000000	98.442097 
3769.000000	98.444296 
3768.000000	98.454968 
3767.000000	98.472466 
3766.000000	98.488642 
3765.000000	98.494163 
3764.000000	98.487054 
3763.000000	98.474819 
3762.000000	98.467768 
3761.000000	98.470939 
3760.000000	98.480784 
3759.000000	98.488623 
3758.000000	98.488953 
3757.000000	98.484079 
3756.000000	98.481043 
3755.000000	98.485066 
3754.000000	98.494766 
3753.000000	98.503184 
3752.000000	98.504469 
3751.000000	98.499522 
3750.000000	98.493237 
3749.000000	98.488250 
3748.000000	98.484651 
3747.000000	98.482724 
3746.000000	98.482148 
3745.000000	98.481766 
3744.000000	98.480286 
3743.000000	98.475226 
3742.000000	98.464847 
3741.000000	98.450766 
3740.000000	98.436305 
3739.000000	98.424290 
3738.000000	98.417740 
3737.000000	98.420146 
3736.000000	98.433261 
3735.000000	98.455283 
3734.000000	98.480771 
3733.000000	98.501219 
3732.000000	98.506687 
3731.000000	98.492608 
3730.000000	98.465642 
3729.000000	98.440024 
3728.000000	98.427390 
3727.000000	98.429478 
3726.000000	98.438710 
3725.000000	98.446245 
3724.000000	98.449260 
3723.000000	98.451387 
3722.000000	98.458796 
3721.000000	98.475693 
3720.000000	98.500806 
3719.000000	98.526374 
3718.000000	98.542497 
3717.000000	98.544382 
3716.000000	98.535367 
3715.000000	98.522682 
3714.000000	98.509913 
3713.000000	98.496167 
3712.000000	98.480582 
3711.000000	98.465898 
3710.000000	98.456916 
3709.000000	98.457360 
3708.000000	98.468195 
3707.000000	98.486023 
3706.000000	98.504457 
3705.000000	98.515944 
3704.000000	98.516363 
3703.000000	98.507843 
3702.000000	98.498080 
3701.000000	98.494612 
3700.000000	98.500716 
3699.000000	98.515545 
3698.000000	98.535205 
3697.000000	98.553179 
3696.000000	98.562105 
3695.000000	98.558588 
3694.000000	98.545420 
3693.000000	98.530754 
3692.000000	98.523325 
3691.000000	98.527911 
3690.000000	98.541153 
3689.000000	98.553759 
3688.000000	98.559313 
3687.000000	98.559213 
3686.000000	98.559446 
3685.000000	98.563049 
3684.000000	98.567146 
3683.000000	98.565927 
3682.000000	98.558492 
3681.000000	98.550434 
3680.000000	98.547403 
3679.000000	98.548065 
3678.000000	98.544292 
3677.000000	98.528819 
3676.000000	98.504439 
3675.000000	98.483099 
3674.000000	98.474650 
3673.000000	98.481284 
3672.000000	98.499160 
3671.000000	98.522312 
3670.000000	98.545264 
3669.000000	98.564226 
3668.000000	98.577591 
3667.000000	98.585011 
3666.000000	98.586742 
3665.000000	98.584584 
3664.000000	98.581309 
3663.000000	98.578560 
3662.000000	98.576717 
3661.000000	98.576696 
3660.000000	98.579559 
3659.000000	98.583775 
3658.000000	98.584823 
3657.000000	98.580089 
3656.000000	98.573107 
3655.000000	98.570012 
3654.000000	98.573303 
3653.000000	98.580746 
3652.000000	98.587443 
3651.000000	98.588573 
3650.000000	98.582813 
3649.000000	98.573744 
3648.000000	98.567858 
3647.000000	98.570190 
3646.000000	98.580713 
3645.000000	98.595446 
3644.000000	98.609783 
3643.000000	98.620335 
3642.000000	98.625501 
3641.000000	98.625461 
3640.000000	98.621373 
3639.000000	98.613449 
3638.000000	98.600512 
3637.000000	98.582779 
3636.000000	98.564782 
3635.000000	98.553762 
3634.000000	98.553916 
3633.000000	98.563540 
3632.000000	98.578570 
3631.000000	98.596156 
3630.000000	98.613310 
3629.000000	98.622984 
3628.000000	98.617475 
3627.000000	98.599475 
3626.000000	98.580801 
3625.000000	98.571141 
3624.000000	98.570923 
3623.000000	98.572443 
3622.000000	98.568629 
3621.000000	98.561332 
3620.000000	98.559716 
3619.000000	98.568547 
3618.000000	98.581390 
3617.000000	98.588523 
3616.000000	98.586887 
3615.000000	98.580727 
3614.000000	98.575775 
3613.000000	98.574415 
3612.000000	98.575225 
3611.000000	98.575689 
3610.000000	98.574404 
3609.000000	98.572444 
3608.000000	98.573034 
3607.000000	98.578543 
3606.000000	98.589265 
3605.000000	98.603706 
3604.000000	98.619163 
3603.000000	98.631507 
3602.000000	98.636899 
3601.000000	98.635503 
3600.000000	98.632734 
3599.000000	98.635176 
3598.000000	98.644423 
3597.000000	98.657122 
3596.000000	98.669516 
3595.000000	98.680469 
3594.000000	98.688030 
3593.000000	98.687596 
3592.000000	98.675291 
3591.000000	98.653502 
3590.000000	98.631750 
3589.000000	98.621948 
3588.000000	98.629273 
3587.000000	98.646569 
3586.000000	98.662567 
3585.000000	98.672467 
3584.000000	98.678150 
3583.000000	98.682127 
3582.000000	98.684769 
3581.000000	98.685785 
3580.000000	98.686791 
3579.000000	98.691398 
3578.000000	98.701389 
3577.000000	98.714315 
3576.000000	98.724275 
3575.000000	98.725824 
3574.000000	98.716464 
3573.000000	98.697803 
3572.000000	98.674941 
3571.000000	98.655405 
3570.000000	98.646665 
3569.000000	98.653127 
3568.000000	98.672711 
3567.000000	98.697010 
3566.000000	98.717541 
3565.000000	98.732107 
3564.000000	98.742491 
3563.000000	98.749638 
3562.000000	98.753363 
3561.000000	98.754720 
3560.000000	98.756302 
3559.000000	98.759822 
3558.000000	98.764367 
3557.000000	98.768084 
3556.000000	98.771257 
3555.000000	98.776860 
3554.000000	98.787685 
3553.000000	98.803366 
3552.000000	98.820904 
3551.000000	98.837767 
3550.000000	98.852752 
3549.000000	98.863562 
3548.000000	98.866071 
3547.000000	98.858630 
3546.000000	98.847115 
3545.000000	98.842441 
3544.000000	98.850431 
3543.000000	98.865401 
3542.000000	98.875022 
3541.000000	98.871711 
3540.000000	98.859162 
3539.000000	98.848775 
3538.000000	98.850002 
3537.000000	98.863661 
3536.000000	98.882741 
3535.000000	98.898971 
3534.000000	98.908406 
3533.000000	98.911926 
3532.000000	98.911972 
3531.000000	98.910120 
3530.000000	98.907433 
3529.000000	98.905805 
3528.000000	98.907474 
3527.000000	98.913059 
3526.000000	98.920943 
3525.000000	98.928888 
3524.000000	98.936081 
3523.000000	98.944059 
3522.000000	98.955932 
3521.000000	98.973601 
3520.000000	98.994178 
3519.000000	99.009969 
3518.000000	99.014509 
3517.000000	99.009826 
3516.000000	99.005752 
3515.000000	99.010489 
3514.000000	99.022388 
3513.000000	99.031882 
3512.000000	99.030879 
3511.000000	99.019735 
3510.000000	99.005948 
3509.000000	98.996679 
3508.000000	98.992538 
3507.000000	98.988286 
3506.000000	98.979397 
3505.000000	98.967366 
3504.000000	98.958295 
3503.000000	98.956411 
3502.000000	98.960415 
3501.000000	98.965914 
3500.000000	98.968923 
3499.000000	98.967112 
3498.000000	98.961344 
3497.000000	98.957417 
3496.000000	98.962325 
3495.000000	98.975435 
3494.000000	98.985903 
3493.000000	98.982674 
3492.000000	98.966099 
3491.000000	98.946394 
3490.000000	98.932191 
3489.000000	98.924624 
3488.000000	98.922586 
3487.000000	98.927863 
3486.000000	98.941532 
3485.000000	98.958421 
3484.000000	98.969454 
3483.000000	98.969146 
3482.000000	98.959104 
3481.000000	98.945115 
3480.000000	98.933512 
3479.000000	98.929888 
3478.000000	98.937189 
3477.000000	98.952282 
3476.000000	98.966056 
3475.000000	98.970491 
3474.000000	98.967116 
3473.000000	98.966511 
3472.000000	98.977734 
3471.000000	98.998470 
3470.000000	99.016779 
3469.000000	99.022804 
3468.000000	99.017759 
3467.000000	99.011479 
3466.000000	99.012270 
3465.000000	99.020043 
3464.000000	99.028033 
3463.000000	99.029715 
3462.000000	99.025043 
3461.000000	99.021511 
3460.000000	99.028501 
3459.000000	99.048160 
3458.000000	99.071039 
3457.000000	99.082808 
3456.000000	99.076909 
3455.000000	99.060201 
3454.000000	99.045238 
3453.000000	99.038133 
3452.000000	99.035777 
3451.000000	99.033488 
3450.000000	99.032049 
3449.000000	99.035746 
3448.000000	99.045658 
3447.000000	99.057347 
3446.000000	99.065090 
3445.000000	99.066271 
3444.000000	99.061169 
3443.000000	99.050829 
3442.000000	99.036584 
3441.000000	99.020688 
3440.000000	99.006180 
3439.000000	98.995946 
3438.000000	98.991316 
3437.000000	98.990333 
3436.000000	98.987563 
3435.000000	98.977979 
3434.000000	98.962549 
3433.000000	98.949359 
3432.000000	98.947937 
3431.000000	98.962202 
3430.000000	98.987932 
3429.000000	99.014598 
3428.000000	99.029450 
3427.000000	99.024279 
3426.000000	99.002236 
3425.000000	98.976735 
3424.000000	98.959960 
3423.000000	98.952273 
3422.000000	98.945115 
3421.000000	98.933548 
3420.000000	98.921975 
3419.000000	98.917480 
3418.000000	98.921974 
3417.000000	98.932288 
3416.000000	98.943397 
3415.000000	98.948907 
3414.000000	98.942634 
3413.000000	98.924937 
3412.000000	98.906175 
3411.000000	98.898880 
3410.000000	98.905235 
3409.000000	98.914977 
3408.000000	98.916469 
3407.000000	98.907661 
3406.000000	98.894828 
3405.000000	98.883031 
3404.000000	98.871248 
3403.000000	98.856963 
3402.000000	98.842613 
3401.000000	98.834715 
3400.000000	98.836705 
3399.000000	98.844798 
3398.000000	98.851494 
3397.000000	98.851484 
3396.000000	98.843169 
3395.000000	98.827237 
3394.000000	98.807538 
3393.000000	98.792719 
3392.000000	98.792296 
3391.000000	98.808314 
3390.000000	98.832138 
3389.000000	98.850536 
3388.000000	98.854587 
3387.000000	98.844042 
3386.000000	98.826864 
3385.000000	98.815181 
3384.000000	98.817345 
3383.000000	98.830192 
3382.000000	98.840535 
3381.000000	98.837536 
3380.000000	98.823495 
3379.000000	98.810925 
3378.000000	98.809270 
3377.000000	98.816174 
3376.000000	98.821285 
3375.000000	98.816933 
3374.000000	98.805122 
3373.000000	98.795668 
3372.000000	98.797733 
3371.000000	98.811975 
3370.000000	98.830467 
3369.000000	98.844166 
3368.000000	98.849894 
3367.000000	98.850097 
3366.000000	98.848058 
3365.000000	98.845252 
3364.000000	98.842304 
3363.000000	98.839832 
3362.000000	98.837610 
3361.000000	98.834264 
3360.000000	98.828473 
3359.000000	98.820065 
3358.000000	98.809964 
3357.000000	98.799593 
3356.000000	98.790060 
3355.000000	98.781077 
3354.000000	98.770698 
3353.000000	98.757048 
3352.000000	98.740963 
3351.000000	98.726923 
3350.000000	98.720712 
3349.000000	98.724882 
3348.000000	98.735382 
3347.000000	98.743208 
3346.000000	98.741531 
3345.000000	98.732253 
3344.000000	98.724597 
3343.000000	98.725906 
3342.000000	98.733707 
3341.000000	98.737314 
3340.000000	98.727259 
3339.000000	98.703543 
3338.000000	98.675310 
3337.000000	98.652935 
3336.000000	98.640577 
3335.000000	98.636180 
3334.000000	98.636887 
3333.000000	98.641046 
3332.000000	98.644386 
3331.000000	98.639077 
3330.000000	98.621644 
3329.000000	98.600042 
3328.000000	98.587082 
3327.000000	98.585874 
3326.000000	98.586962 
3325.000000	98.581615 
3324.000000	98.572483 
3323.000000	98.567248 
3322.000000	98.565703 
3321.000000	98.558842 
3320.000000	98.539502 
3319.000000	98.509585 
3318.000000	98.476900 
3317.000000	98.448521 
3316.000000	98.427685 
3315.000000	98.414011 
3314.000000	98.405208 
3313.000000	98.399449 
3312.000000	98.395817 
3311.000000	98.391418 
3310.000000	98.379713 
3309.000000	98.355047 
3308.000000	98.319063 
3307.000000	98.279920 
3306.000000	98.244511 
3305.000000	98.213612 
3304.000000	98.185272 
3303.000000	98.160029 
3302.000000	98.140373 
3301.000000	98.125998 
3300.000000	98.111626 
3299.000000	98.090013 
3298.000000	98.056789 
3297.000000	98.013280 
3296.000000	97.966033 
3295.000000	97.923732 
3294.000000	97.892935 
3293.000000	97.874645 
3292.000000	97.863824 
3291.000000	97.852658 
3290.000000	97.835614 
3289.000000	97.812424 
3288.000000	97.786683 
3287.000000	97.761631 
3286.000000	97.736800 
3285.000000	97.708146 
3284.000000	97.671639 
3283.000000	97.627968 
3282.000000	97.584423 
3281.000000	97.551026 
3280.000000	97.533183 
3279.000000	97.527817 
3278.000000	97.526879 
3277.000000	97.523894 
3276.000000	97.516770 
3275.000000	97.506020 
3274.000000	97.492281 
3273.000000	97.474844 
3272.000000	97.450842 
3271.000000	97.416840 
3270.000000	97.373601 
3269.000000	97.328699 
3268.000000	97.291471 
3267.000000	97.264896 
3266.000000	97.244562 
3265.000000	97.225577 
3264.000000	97.207761 
3263.000000	97.193446 
3262.000000	97.183063 
3261.000000	97.174350 
3260.000000	97.163658 
3259.000000	97.146761 
3258.000000	97.120514 
3257.000000	97.085470 
3256.000000	97.045516 
3255.000000	97.003883 
3254.000000	96.961036 
3253.000000	96.917257 
3252.000000	96.875028 
3251.000000	96.837081 
3250.000000	96.803417 
3249.000000	96.771720 
3248.000000	96.739646 
3247.000000	96.705864 
3246.000000	96.670502 
3245.000000	96.635966 
3244.000000	96.605982 
3243.000000	96.582017 
3242.000000	96.560717 
3241.000000	96.535242 
3240.000000	96.498917 
3239.000000	96.449069 
3238.000000	96.390093 
3237.000000	96.332832 
3236.000000	96.287511 
3235.000000	96.255112 
3234.000000	96.226961 
3233.000000	96.193349 
3232.000000	96.150733 
3231.000000	96.100892 
3230.000000	96.047400 
3229.000000	95.995155 
3228.000000	95.949426 
3227.000000	95.911060 
3226.000000	95.874192 
3225.000000	95.832493 
3224.000000	95.787432 
3223.000000	95.747567 
3222.000000	95.719336 
3221.000000	95.700030 
3220.000000	95.679528 
3219.000000	95.647788 
3218.000000	95.601525 
3217.000000	95.545654 
3216.000000	95.488871 
3215.000000	95.437358 
3214.000000	95.392586 
3213.000000	95.354142 
3212.000000	95.321650 
3211.000000	95.292295 
3210.000000	95.259150 
3209.000000	95.215722 
3208.000000	95.162289 
3207.000000	95.105335 
3206.000000	95.050123 
3205.000000	94.995450 
3204.000000	94.936450 
3203.000000	94.871385 
3202.000000	94.804079 
3201.000000	94.739331 
3200.000000	94.677366 
3199.000000	94.614903 
3198.000000	94.551673 
3197.000000	94.492393 
3196.000000	94.439316 
3195.000000	94.385142 
3194.000000	94.318127 
3193.000000	94.234655 
3192.000000	94.143038 
3191.000000	94.053905 
3190.000000	93.970212 
3189.000000	93.887904 
