PE IR                   SPECTRUM    ASCII       PEDS        1.60        
  -1
~SP.SP
18/03/23
17:03:13.00
18/03/23
17:03:13.00
pili
Irradiada
650.000000
4









SPECTRUM 100,CPU32 MAIN 00.02.8200 12-DECEMBER-2006 10:00:00
MIR TGS
MIR
OPTKBR
78890
0.200000

4.000000
STRONG
RATIO
SPECTRUM
MAGNITUDE
UNIVERSAL ATR
DOUBLE

COMBINED


0


#HDR
-1
-1
#GR
CM-1
%T
0.00002384185791015625
0.0
4000.000000
-1.000000
3351
8
98.262669
29.372237
#DATA
4000.000000	97.962166 
3999.000000	97.963751 
3998.000000	97.971326 
3997.000000	97.983458 
3996.000000	97.996950 
3995.000000	98.009640 
3994.000000	98.021804 
3993.000000	98.034752 
3992.000000	98.047883 
3991.000000	98.057638 
3990.000000	98.060010 
3989.000000	98.054035 
3988.000000	98.042284 
3987.000000	98.027902 
3986.000000	98.012285 
3985.000000	97.996264 
3984.000000	97.982382 
3983.000000	97.974117 
3982.000000	97.972583 
3981.000000	97.975343 
3980.000000	97.979238 
3979.000000	97.983427 
3978.000000	97.988788 
3977.000000	97.995281 
3976.000000	98.001268 
3975.000000	98.005336 
3974.000000	98.007384 
3973.000000	98.007624 
3972.000000	98.005870 
3971.000000	98.002970 
3970.000000	98.002320 
3969.000000	98.008231 
3968.000000	98.021821 
3967.000000	98.038892 
3966.000000	98.052373 
3965.000000	98.057180 
3964.000000	98.052840 
3963.000000	98.042175 
3962.000000	98.028504 
3961.000000	98.014630 
3960.000000	98.003654 
3959.000000	97.998840 
3958.000000	98.001705 
3957.000000	98.010615 
3956.000000	98.021918 
3955.000000	98.032476 
3954.000000	98.040854 
3953.000000	98.046723 
3952.000000	98.050118 
3951.000000	98.051590 
3950.000000	98.052402 
3949.000000	98.053876 
3948.000000	98.056591 
3947.000000	98.060494 
3946.000000	98.065672 
3945.000000	98.072724 
3944.000000	98.082012 
3943.000000	98.092004 
3942.000000	98.098504 
3941.000000	98.096814 
3940.000000	98.085685 
3939.000000	98.069167 
3938.000000	98.054534 
3937.000000	98.047350 
3936.000000	98.047824 
3935.000000	98.051564 
3934.000000	98.053860 
3933.000000	98.053851 
3932.000000	98.054878 
3931.000000	98.060491 
3930.000000	98.069941 
3929.000000	98.077632 
3928.000000	98.077190 
3927.000000	98.066754 
3926.000000	98.051134 
3925.000000	98.038732 
3924.000000	98.034995 
3923.000000	98.038639 
3922.000000	98.043626 
3921.000000	98.044290 
3920.000000	98.039476 
3919.000000	98.033025 
3918.000000	98.030319 
3917.000000	98.033896 
3916.000000	98.042158 
3915.000000	98.051332 
3914.000000	98.057758 
3913.000000	98.058780 
3912.000000	98.053748 
3911.000000	98.044716 
3910.000000	98.035808 
3909.000000	98.030839 
3908.000000	98.031104 
3907.000000	98.035128 
3906.000000	98.040160 
3905.000000	98.044665 
3904.000000	98.049843 
3903.000000	98.058119 
3902.000000	98.069747 
3901.000000	98.081188 
3900.000000	98.087657 
3899.000000	98.087815 
3898.000000	98.084859 
3897.000000	98.082796 
3896.000000	98.082774 
3895.000000	98.082839 
3894.000000	98.080606 
3893.000000	98.075851 
3892.000000	98.070920 
3891.000000	98.068057 
3890.000000	98.067212 
3889.000000	98.067134 
3888.000000	98.067126 
3887.000000	98.067735 
3886.000000	98.070339 
3885.000000	98.075532 
3884.000000	98.082871 
3883.000000	98.092776 
3882.000000	98.106177 
3881.000000	98.121329 
3880.000000	98.132451 
3879.000000	98.133725 
3878.000000	98.124278 
3877.000000	98.108809 
3876.000000	98.095131 
3875.000000	98.089141 
3874.000000	98.089434 
3873.000000	98.089368 
3872.000000	98.085428 
3871.000000	98.081029 
3870.000000	98.081399 
3869.000000	98.086802 
3868.000000	98.093963 
3867.000000	98.101090 
3866.000000	98.107400 
3865.000000	98.111245 
3864.000000	98.111542 
3863.000000	98.110205 
3862.000000	98.111365 
3861.000000	98.116426 
3860.000000	98.121645 
3859.000000	98.121701 
3858.000000	98.114957 
3857.000000	98.104564 
3856.000000	98.094839 
3855.000000	98.088255 
3854.000000	98.085596 
3853.000000	98.084159 
3852.000000	98.080882 
3851.000000	98.079491 
3850.000000	98.086057 
3849.000000	98.100874 
3848.000000	98.118000 
3847.000000	98.129928 
3846.000000	98.132575 
3845.000000	98.126409 
3844.000000	98.114569 
3843.000000	98.100520 
3842.000000	98.087510 
3841.000000	98.078331 
3840.000000	98.075309 
3839.000000	98.079686 
3838.000000	98.089997 
3837.000000	98.101882 
3836.000000	98.111131 
3835.000000	98.117163 
3834.000000	98.122527 
3833.000000	98.129111 
3832.000000	98.135661 
3831.000000	98.138971 
3830.000000	98.136944 
3829.000000	98.130814 
3828.000000	98.124747 
3827.000000	98.121987 
3826.000000	98.120875 
3825.000000	98.115447 
3824.000000	98.100933 
3823.000000	98.079647 
3822.000000	98.062807 
3821.000000	98.061525 
3820.000000	98.074767 
3819.000000	98.093829 
3818.000000	98.111964 
3817.000000	98.126245 
3816.000000	98.136683 
3815.000000	98.144131 
3814.000000	98.148096 
3813.000000	98.147087 
3812.000000	98.140447 
3811.000000	98.129922 
3810.000000	98.120083 
3809.000000	98.116409 
3808.000000	98.121093 
3807.000000	98.130107 
3806.000000	98.136260 
3805.000000	98.136142 
3804.000000	98.132397 
3803.000000	98.128964 
3802.000000	98.126781 
3801.000000	98.123955 
3800.000000	98.119760 
3799.000000	98.117456 
3798.000000	98.120876 
3797.000000	98.129007 
3796.000000	98.135953 
3795.000000	98.137367 
3794.000000	98.134838 
3793.000000	98.133009 
3792.000000	98.134611 
3791.000000	98.138466 
3790.000000	98.141146 
3789.000000	98.140349 
3788.000000	98.136554 
3787.000000	98.131874 
3786.000000	98.127435 
3785.000000	98.121990 
3784.000000	98.114132 
3783.000000	98.105859 
3782.000000	98.102803 
3781.000000	98.109898 
3780.000000	98.125689 
3779.000000	98.141022 
3778.000000	98.146279 
3777.000000	98.139605 
3776.000000	98.126612 
3775.000000	98.113966 
3774.000000	98.104557 
3773.000000	98.097692 
3772.000000	98.092566 
3771.000000	98.090343 
3770.000000	98.092650 
3769.000000	98.099040 
3768.000000	98.107432 
3767.000000	98.115764 
3766.000000	98.121375 
3765.000000	98.120486 
3764.000000	98.111030 
3763.000000	98.096064 
3762.000000	98.083431 
3761.000000	98.081081 
3760.000000	98.091025 
3759.000000	98.106073 
3758.000000	98.115024 
3757.000000	98.112734 
3756.000000	98.103751 
3755.000000	98.097171 
3754.000000	98.098540 
3753.000000	98.105519 
3752.000000	98.110970 
3751.000000	98.110022 
3750.000000	98.103050 
3749.000000	98.092770 
3748.000000	98.082450 
3747.000000	98.077859 
3746.000000	98.085530 
3745.000000	98.105654 
3744.000000	98.125311 
3743.000000	98.126626 
3742.000000	98.104626 
3741.000000	98.069427 
3740.000000	98.035653 
3739.000000	98.014097 
3738.000000	98.008972 
3737.000000	98.018522 
3736.000000	98.036217 
3735.000000	98.054017 
3734.000000	98.066994 
3733.000000	98.073843 
3732.000000	98.073259 
3731.000000	98.063716 
3730.000000	98.047289 
3729.000000	98.030806 
3728.000000	98.021721 
3727.000000	98.022869 
3726.000000	98.030419 
3725.000000	98.037914 
3724.000000	98.042463 
3723.000000	98.046368 
3722.000000	98.053396 
3721.000000	98.064262 
3720.000000	98.076569 
3719.000000	98.087811 
3718.000000	98.097221 
3717.000000	98.105248 
3716.000000	98.112144 
3715.000000	98.117510 
3714.000000	98.120609 
3713.000000	98.120962 
3712.000000	98.118069 
3711.000000	98.110533 
3710.000000	98.097934 
3709.000000	98.083528 
3708.000000	98.072272 
3707.000000	98.067180 
3706.000000	98.068177 
3705.000000	98.072701 
3704.000000	98.077176 
3703.000000	98.078192 
3702.000000	98.074407 
3701.000000	98.067613 
3700.000000	98.062308 
3699.000000	98.063287 
3698.000000	98.072232 
3697.000000	98.085939 
3696.000000	98.098067 
3695.000000	98.103671 
3694.000000	98.102736 
3693.000000	98.100033 
3692.000000	98.101608 
3691.000000	98.110480 
3690.000000	98.123834 
3689.000000	98.135688 
3688.000000	98.143164 
3687.000000	98.148708 
3686.000000	98.156247 
3685.000000	98.166478 
3684.000000	98.175439 
3683.000000	98.177991 
3682.000000	98.173761 
3681.000000	98.167657 
3680.000000	98.163585 
3679.000000	98.159775 
3678.000000	98.151831 
3677.000000	98.139514 
3676.000000	98.129751 
3675.000000	98.128317 
3674.000000	98.133572 
3673.000000	98.142331 
3672.000000	98.153022 
3671.000000	98.164622 
3670.000000	98.176410 
3669.000000	98.187144 
3668.000000	98.195463 
3667.000000	98.201034 
3666.000000	98.204602 
3665.000000	98.207760 
3664.000000	98.211362 
3663.000000	98.213231 
3662.000000	98.209200 
3661.000000	98.197436 
3660.000000	98.179999 
3659.000000	98.160721 
3658.000000	98.143874 
3657.000000	98.135138 
3656.000000	98.139312 
3655.000000	98.154354 
3654.000000	98.171494 
3653.000000	98.181458 
3652.000000	98.179065 
3651.000000	98.165902 
3650.000000	98.150553 
3649.000000	98.142119 
3648.000000	98.143401 
3647.000000	98.151676 
3646.000000	98.162034 
3645.000000	98.169996 
3644.000000	98.173512 
3643.000000	98.172921 
3642.000000	98.169810 
3641.000000	98.166192 
3640.000000	98.164106 
3639.000000	98.164297 
3638.000000	98.164483 
3637.000000	98.160329 
3636.000000	98.149229 
3635.000000	98.132839 
3634.000000	98.115374 
3633.000000	98.100049 
3632.000000	98.088023 
3631.000000	98.079496 
3630.000000	98.074199 
3629.000000	98.069930 
3628.000000	98.062729 
3627.000000	98.053291 
3626.000000	98.047888 
3625.000000	98.050603 
3624.000000	98.058191 
3623.000000	98.062769 
3622.000000	98.060184 
3621.000000	98.055521 
3620.000000	98.058395 
3619.000000	98.070902 
3618.000000	98.083957 
3617.000000	98.088560 
3616.000000	98.084899 
3615.000000	98.079676 
3614.000000	98.078672 
3613.000000	98.082878 
3612.000000	98.090632 
3611.000000	98.101020 
3610.000000	98.112966 
3609.000000	98.122672 
3608.000000	98.124935 
3607.000000	98.117992 
3606.000000	98.106110 
3605.000000	98.096220 
3604.000000	98.092975 
3603.000000	98.096608 
3602.000000	98.103639 
3601.000000	98.108985 
3600.000000	98.109242 
3599.000000	98.105841 
3598.000000	98.104974 
3597.000000	98.113597 
3596.000000	98.133090 
3595.000000	98.155899 
3594.000000	98.170240 
3593.000000	98.169699 
3592.000000	98.157016 
3591.000000	98.139443 
3590.000000	98.123450 
3589.000000	98.114114 
3588.000000	98.115130 
3587.000000	98.125519 
3586.000000	98.139046 
3585.000000	98.148795 
3584.000000	98.150669 
3583.000000	98.144027 
3582.000000	98.131728 
3581.000000	98.119409 
3580.000000	98.113798 
3579.000000	98.119721 
3578.000000	98.136682 
3577.000000	98.157579 
3576.000000	98.171363 
3575.000000	98.168740 
3574.000000	98.147595 
3573.000000	98.114518 
3572.000000	98.081392 
3571.000000	98.060135 
3570.000000	98.058678 
3569.000000	98.078619 
3568.000000	98.113091 
3567.000000	98.148442 
3566.000000	98.173578 
3565.000000	98.188616 
3564.000000	98.200708 
3563.000000	98.213949 
3562.000000	98.225116 
3561.000000	98.227028 
3560.000000	98.215366 
3559.000000	98.193101 
3558.000000	98.168878 
3557.000000	98.151235 
3556.000000	98.143846 
3555.000000	98.145316 
3554.000000	98.152281 
3553.000000	98.162580 
3552.000000	98.175773 
3551.000000	98.191716 
3550.000000	98.208973 
3549.000000	98.224136 
3548.000000	98.232864 
3547.000000	98.232893 
3546.000000	98.226962 
3545.000000	98.221504 
3544.000000	98.220642 
3543.000000	98.221778 
3542.000000	98.218236 
3541.000000	98.206715 
3540.000000	98.191762 
3539.000000	98.182764 
3538.000000	98.186014 
3537.000000	98.199434 
3536.000000	98.214351 
3535.000000	98.222809 
3534.000000	98.223137 
3533.000000	98.219514 
3532.000000	98.217567 
3531.000000	98.220818 
3530.000000	98.229096 
3529.000000	98.237775 
3528.000000	98.238977 
3527.000000	98.227233 
3526.000000	98.206530 
3525.000000	98.189816 
3524.000000	98.188738 
3523.000000	98.203180 
3522.000000	98.222770 
3521.000000	98.237197 
3520.000000	98.242203 
3519.000000	98.237550 
3518.000000	98.225333 
3517.000000	98.212234 
3516.000000	98.208357 
3515.000000	98.219102 
3514.000000	98.238818 
3513.000000	98.255716 
3512.000000	98.262669 
3511.000000	98.260852 
3510.000000	98.253633 
3509.000000	98.240997 
3508.000000	98.222102 
3507.000000	98.200468 
3506.000000	98.183231 
3505.000000	98.175459 
3504.000000	98.176525 
3503.000000	98.182073 
3502.000000	98.188258 
3501.000000	98.193057 
3500.000000	98.195240 
3499.000000	98.195302 
3498.000000	98.197694 
3497.000000	98.208609 
3496.000000	98.228226 
3495.000000	98.246489 
3494.000000	98.250208 
3493.000000	98.235407 
3492.000000	98.211099 
3491.000000	98.190742 
3490.000000	98.181807 
3489.000000	98.183313 
3488.000000	98.190405 
3487.000000	98.198616 
3486.000000	98.205096 
3485.000000	98.208806 
3484.000000	98.210208 
3483.000000	98.209473 
3482.000000	98.204820 
3481.000000	98.194353 
3480.000000	98.180235 
3479.000000	98.169406 
3478.000000	98.168292 
3477.000000	98.176360 
3476.000000	98.185770 
3475.000000	98.188451 
3474.000000	98.183965 
3473.000000	98.179317 
3472.000000	98.180732 
3471.000000	98.186700 
3470.000000	98.190168 
3469.000000	98.186913 
3468.000000	98.180216 
3467.000000	98.177370 
3466.000000	98.182593 
3465.000000	98.193512 
3464.000000	98.203206 
3463.000000	98.205620 
3462.000000	98.201011 
3461.000000	98.196800 
3460.000000	98.201189 
3459.000000	98.214139 
3458.000000	98.225388 
3457.000000	98.223442 
3456.000000	98.206726 
3455.000000	98.185181 
3454.000000	98.170807 
3453.000000	98.167931 
3452.000000	98.172698 
3451.000000	98.179296 
3450.000000	98.184248 
3449.000000	98.185692 
3448.000000	98.182570 
3447.000000	98.176837 
3446.000000	98.173971 
3445.000000	98.177375 
3444.000000	98.182609 
3443.000000	98.180367 
3442.000000	98.166313 
3441.000000	98.146446 
3440.000000	98.131775 
3439.000000	98.129493 
3438.000000	98.139205 
3437.000000	98.154351 
3436.000000	98.165627 
3435.000000	98.166196 
3434.000000	98.156867 
3433.000000	98.145914 
3432.000000	98.142257 
3431.000000	98.149338 
3430.000000	98.165175 
3429.000000	98.184446 
3428.000000	98.198657 
3427.000000	98.198996 
3426.000000	98.184192 
3425.000000	98.163744 
3424.000000	98.149087 
3423.000000	98.142683 
3422.000000	98.139374 
3421.000000	98.136353 
3420.000000	98.135604 
3419.000000	98.137022 
3418.000000	98.136019 
3417.000000	98.129950 
3416.000000	98.121412 
3415.000000	98.112635 
3414.000000	98.101503 
3413.000000	98.086886 
3412.000000	98.074372 
3411.000000	98.071896 
3410.000000	98.080852 
3409.000000	98.094849 
3408.000000	98.106479 
3407.000000	98.112770 
3406.000000	98.114436 
3405.000000	98.112496 
3404.000000	98.106716 
3403.000000	98.096731 
3402.000000	98.084297 
3401.000000	98.073836 
3400.000000	98.069451 
3399.000000	98.071116 
3398.000000	98.074492 
3397.000000	98.074218 
3396.000000	98.066568 
3395.000000	98.050651 
3394.000000	98.030305 
3393.000000	98.014401 
3392.000000	98.011121 
3391.000000	98.020150 
3390.000000	98.033065 
3389.000000	98.042184 
3388.000000	98.046481 
3387.000000	98.048874 
3386.000000	98.052269 
3385.000000	98.059786 
3384.000000	98.073722 
3383.000000	98.089802 
3382.000000	98.095801 
3381.000000	98.081874 
3380.000000	98.052472 
3379.000000	98.024573 
3378.000000	98.013186 
3377.000000	98.020189 
3376.000000	98.036177 
3375.000000	98.049798 
3374.000000	98.054853 
3373.000000	98.051899 
3372.000000	98.045984 
3371.000000	98.042574 
3370.000000	98.044208 
3369.000000	98.049885 
3368.000000	98.056784 
3367.000000	98.062164 
3366.000000	98.064265 
3365.000000	98.062492 
3364.000000	98.057399 
3363.000000	98.050927 
3362.000000	98.046484 
3361.000000	98.047188 
3360.000000	98.052232 
3359.000000	98.055557 
3358.000000	98.050471 
3357.000000	98.036563 
3356.000000	98.020831 
3355.000000	98.011328 
3354.000000	98.010086 
3353.000000	98.011990 
3352.000000	98.009388 
3351.000000	97.998773 
3350.000000	97.985083 
3349.000000	97.978516 
3348.000000	97.984072 
3347.000000	97.994214 
3346.000000	97.995585 
3345.000000	97.984042 
3344.000000	97.969897 
3343.000000	97.966706 
3342.000000	97.977226 
3341.000000	97.991639 
3340.000000	97.996627 
3339.000000	97.984681 
3338.000000	97.957818 
3337.000000	97.925768 
3336.000000	97.899638 
3335.000000	97.884802 
3334.000000	97.879388 
3333.000000	97.878621 
3332.000000	97.878082 
3331.000000	97.873579 
3330.000000	97.863271 
3329.000000	97.852446 
3328.000000	97.851330 
3327.000000	97.863297 
3326.000000	97.878046 
3325.000000	97.881427 
3324.000000	97.870145 
3323.000000	97.851986 
3322.000000	97.833153 
3321.000000	97.812263 
3320.000000	97.787908 
3319.000000	97.765621 
3318.000000	97.752399 
3317.000000	97.746875 
3316.000000	97.739547 
3315.000000	97.722876 
3314.000000	97.698617 
3313.000000	97.674521 
3312.000000	97.655667 
3311.000000	97.640214 
3310.000000	97.622636 
3309.000000	97.599360 
3308.000000	97.570723 
3307.000000	97.538879 
3306.000000	97.505641 
3305.000000	97.472433 
3304.000000	97.440718 
3303.000000	97.411295 
3302.000000	97.383508 
3301.000000	97.355446 
3300.000000	97.324595 
3299.000000	97.288699 
3298.000000	97.247407 
3297.000000	97.203709 
3296.000000	97.162610 
3295.000000	97.127215 
3294.000000	97.095922 
3293.000000	97.063460 
3292.000000	97.024725 
3291.000000	96.978700 
3290.000000	96.929950 
3289.000000	96.886047 
3288.000000	96.852075 
3287.000000	96.827030 
3286.000000	96.805664 
3285.000000	96.783139 
3284.000000	96.757469 
3283.000000	96.729527 
3282.000000	96.703159 
3281.000000	96.684088 
3280.000000	96.675225 
3279.000000	96.672428 
3278.000000	96.667215 
3277.000000	96.654305 
3276.000000	96.634974 
3275.000000	96.613534 
3274.000000	96.593258 
3273.000000	96.575656 
3272.000000	96.560183 
3271.000000	96.543419 
3270.000000	96.521234 
3269.000000	96.493184 
3268.000000	96.462562 
3267.000000	96.431343 
3266.000000	96.397916 
3265.000000	96.361429 
3264.000000	96.325880 
3263.000000	96.297677 
3262.000000	96.280301 
3261.000000	96.272106 
3260.000000	96.266907 
3259.000000	96.255523 
3258.000000	96.229940 
3257.000000	96.189405 
3256.000000	96.141650 
3255.000000	96.095787 
3254.000000	96.054265 
3253.000000	96.012965 
3252.000000	95.968010 
3251.000000	95.920404 
3250.000000	95.873977 
3249.000000	95.830297 
3248.000000	95.786688 
3247.000000	95.739961 
3246.000000	95.692082 
3245.000000	95.650266 
3244.000000	95.619509 
3243.000000	95.596218 
3242.000000	95.571616 
3241.000000	95.540037 
3240.000000	95.500776 
3239.000000	95.453476 
3238.000000	95.397454 
3237.000000	95.336925 
3236.000000	95.281446 
3235.000000	95.237175 
3234.000000	95.199998 
3233.000000	95.160108 
3232.000000	95.111708 
3231.000000	95.056480 
3230.000000	94.999906 
3229.000000	94.946687 
3228.000000	94.898179 
3227.000000	94.852099 
3226.000000	94.805724 
3225.000000	94.760415 
3224.000000	94.721011 
3223.000000	94.689342 
3222.000000	94.660489 
3221.000000	94.627286 
3220.000000	94.586914 
3219.000000	94.541574 
3218.000000	94.494547 
3217.000000	94.447313 
3216.000000	94.398949 
3215.000000	94.347066 
3214.000000	94.291305 
3213.000000	94.236856 
3212.000000	94.191426 
3211.000000	94.156402 
3210.000000	94.123421 
3209.000000	94.082176 
3208.000000	94.029692 
3207.000000	93.969764 
3206.000000	93.906329 
3205.000000	93.841297 
3204.000000	93.777023 
3203.000000	93.716012 
3202.000000	93.657465 
3201.000000	93.597228 
3200.000000	93.532396 
3199.000000	93.464595 
3198.000000	93.398206 
3197.000000	93.335974 
3196.000000	93.275847 
3195.000000	93.211349 
3194.000000	93.136295 
3193.000000	93.050806 
3192.000000	92.961941 
3191.000000	92.876550 
3190.000000	92.793843 
3189.000000	92.706502 
