PE IR                   SPECTRUM    ASCII       PEDS        1.60        
  -1
~SP.SP
18/03/23
17:33:42.00
18/03/23
17:33:42.00
pili
NI
650.000000
4









SPECTRUM 100,CPU32 MAIN 00.02.8200 12-DECEMBER-2006 10:00:00
MIR TGS
MIR
OPTKBR
78890
0.200000

4.000000
STRONG
RATIO
SPECTRUM
MAGNITUDE
UNIVERSAL ATR
DOUBLE

COMBINED


0


#HDR
-1
-1
#GR
CM-1
%T
0.00002384185791015625
0.0
4000.000000
-1.000000
3351
8
99.793279
32.409742
#DATA
4000.000000	97.887025 
3999.000000	97.891470 
3998.000000	97.895921 
3997.000000	97.900357 
3996.000000	97.906675 
3995.000000	97.914670 
3994.000000	97.926653 
3993.000000	97.940021 
3992.000000	97.951896 
3991.000000	97.959327 
3990.000000	97.960953 
3989.000000	97.957640 
3988.000000	97.951241 
3987.000000	97.942962 
3986.000000	97.933343 
3985.000000	97.923216 
3984.000000	97.913494 
3983.000000	97.903950 
3982.000000	97.893560 
3981.000000	97.882871 
3980.000000	97.875200 
3979.000000	97.874052 
3978.000000	97.879296 
3977.000000	97.886665 
3976.000000	97.891386 
3975.000000	97.892009 
3974.000000	97.890693 
3973.000000	97.890564 
3972.000000	97.893591 
3971.000000	97.900693 
3970.000000	97.912359 
3969.000000	97.927617 
3968.000000	97.942417 
3967.000000	97.950734 
3966.000000	97.948923 
3965.000000	97.939281 
3964.000000	97.928443 
3963.000000	97.921750 
3962.000000	97.919142 
3961.000000	97.916977 
3960.000000	97.913110 
3959.000000	97.909263 
3958.000000	97.908864 
3957.000000	97.913638 
3956.000000	97.922546 
3955.000000	97.933259 
3954.000000	97.943933 
3953.000000	97.953652 
3952.000000	97.961889 
3951.000000	97.968013 
3950.000000	97.971299 
3949.000000	97.971389 
3948.000000	97.968885 
3947.000000	97.965583 
3946.000000	97.963730 
3945.000000	97.964789 
3944.000000	97.968547 
3943.000000	97.972943 
3942.000000	97.975113 
3941.000000	97.973582 
3940.000000	97.969372 
3939.000000	97.964471 
3938.000000	97.959826 
3937.000000	97.955231 
3936.000000	97.950528 
3935.000000	97.946156 
3934.000000	97.942395 
3933.000000	97.938874 
3932.000000	97.935580 
3931.000000	97.933971 
3930.000000	97.935819 
3929.000000	97.940473 
3928.000000	97.944077 
3927.000000	97.942547 
3926.000000	97.935806 
3925.000000	97.928667 
3924.000000	97.926397 
3923.000000	97.929655 
3922.000000	97.934482 
3921.000000	97.936518 
3920.000000	97.934297 
3919.000000	97.929043 
3918.000000	97.922555 
3917.000000	97.916476 
3916.000000	97.913103 
3915.000000	97.914799 
3914.000000	97.921799 
3913.000000	97.931442 
3912.000000	97.940247 
3911.000000	97.946489 
3910.000000	97.951067 
3909.000000	97.955883 
3908.000000	97.961380 
3907.000000	97.965543 
3906.000000	97.965231 
3905.000000	97.959097 
3904.000000	97.949427 
3903.000000	97.940380 
3902.000000	97.934067 
3901.000000	97.929272 
3900.000000	97.924047 
3899.000000	97.918885 
3898.000000	97.916348 
3897.000000	97.918332 
3896.000000	97.924738 
3895.000000	97.933834 
3894.000000	97.943249 
3893.000000	97.951153 
3892.000000	97.957215 
3891.000000	97.961982 
3890.000000	97.965247 
3889.000000	97.965031 
3888.000000	97.959606 
3887.000000	97.951563 
3886.000000	97.947281 
3885.000000	97.950086 
3884.000000	97.956864 
3883.000000	97.962825 
3882.000000	97.967115 
3881.000000	97.972283 
3880.000000	97.979553 
3879.000000	97.987037 
3878.000000	97.992566 
3877.000000	97.996301 
3876.000000	98.000926 
3875.000000	98.008873 
3874.000000	98.018338 
3873.000000	98.023602 
3872.000000	98.019889 
3871.000000	98.007845 
3870.000000	97.992957 
3869.000000	97.980650 
3868.000000	97.973093 
3867.000000	97.970246 
3866.000000	97.972537 
3865.000000	97.979915 
3864.000000	97.988747 
3863.000000	97.994317 
3862.000000	97.996746 
3861.000000	98.000166 
3860.000000	98.006131 
3859.000000	98.010666 
3858.000000	98.008259 
3857.000000	97.997129 
3856.000000	97.981512 
3855.000000	97.969350 
3854.000000	97.962810 
3853.000000	97.953283 
3852.000000	97.935009 
3851.000000	97.914443 
3850.000000	97.903450 
3849.000000	97.910168 
3848.000000	97.932638 
3847.000000	97.960938 
3846.000000	97.985906 
3845.000000	98.004482 
3844.000000	98.017569 
3843.000000	98.024984 
3842.000000	98.023927 
3841.000000	98.012025 
3840.000000	97.992278 
3839.000000	97.974457 
3838.000000	97.968423 
3837.000000	97.975935 
3836.000000	97.990959 
3835.000000	98.005907 
3834.000000	98.015659 
3833.000000	98.018267 
3832.000000	98.014398 
3831.000000	98.006817 
3830.000000	97.999577 
3829.000000	97.997316 
3828.000000	98.003754 
3827.000000	98.018066 
3826.000000	98.032828 
3825.000000	98.038243 
3824.000000	98.029967 
3823.000000	98.014249 
3822.000000	98.003786 
3821.000000	98.003824 
3820.000000	98.005963 
3819.000000	97.999674 
3818.000000	97.985642 
3817.000000	97.976399 
3816.000000	97.982177 
3815.000000	97.998321 
3814.000000	98.011733 
3813.000000	98.015820 
3812.000000	98.015057 
3811.000000	98.016666 
3810.000000	98.020806 
3809.000000	98.021339 
3808.000000	98.014286 
3807.000000	98.003471 
3806.000000	97.996517 
3805.000000	97.995927 
3804.000000	97.998024 
3803.000000	97.999338 
3802.000000	97.999538 
3801.000000	97.999911 
3800.000000	98.002137 
3799.000000	98.007056 
3798.000000	98.014764 
3797.000000	98.024289 
3796.000000	98.032069 
3795.000000	98.035294 
3794.000000	98.035702 
3793.000000	98.037234 
3792.000000	98.041032 
3791.000000	98.043501 
3790.000000	98.040019 
3789.000000	98.030601 
3788.000000	98.020431 
3787.000000	98.015191 
3786.000000	98.016960 
3785.000000	98.023700 
3784.000000	98.031296 
3783.000000	98.035813 
3782.000000	98.035577 
3781.000000	98.032809 
3780.000000	98.032294 
3779.000000	98.035806 
3778.000000	98.038793 
3777.000000	98.034984 
3776.000000	98.023598 
3775.000000	98.010321 
3774.000000	98.001450 
3773.000000	97.998243 
3772.000000	97.997714 
3771.000000	97.997367 
3770.000000	97.997154 
3769.000000	97.997388 
3768.000000	97.997350 
3767.000000	97.996735 
3766.000000	97.996393 
3765.000000	97.996477 
3764.000000	97.995784 
3763.000000	97.994375 
3762.000000	97.995827 
3761.000000	98.005001 
3760.000000	98.021630 
3759.000000	98.037275 
3758.000000	98.042447 
3757.000000	98.035988 
3756.000000	98.024475 
3755.000000	98.014389 
3754.000000	98.008153 
3753.000000	98.005853 
3752.000000	98.007290 
3751.000000	98.010831 
3750.000000	98.012320 
3749.000000	98.008424 
3748.000000	97.998645 
3747.000000	97.984787 
3746.000000	97.973549 
3745.000000	97.973555 
3744.000000	97.983383 
3743.000000	97.992326 
3742.000000	97.993257 
3741.000000	97.987617 
3740.000000	97.981158 
3739.000000	97.974562 
3738.000000	97.962946 
3737.000000	97.945903 
3736.000000	97.932543 
3735.000000	97.934136 
3734.000000	97.951854 
3733.000000	97.974806 
3732.000000	97.988855 
3731.000000	97.985706 
3730.000000	97.967083 
3729.000000	97.943352 
3728.000000	97.927444 
3727.000000	97.926770 
3726.000000	97.938307 
3725.000000	97.953413 
3724.000000	97.967187 
3723.000000	97.981148 
3722.000000	97.997951 
3721.000000	98.016364 
3720.000000	98.032299 
3719.000000	98.042252 
3718.000000	98.045286 
3717.000000	98.042729 
3716.000000	98.036521 
3715.000000	98.027470 
3714.000000	98.015477 
3713.000000	98.001617 
3712.000000	97.989009 
3711.000000	97.981424 
3710.000000	97.980186 
3709.000000	97.984484 
3708.000000	97.993193 
3707.000000	98.005572 
3706.000000	98.020582 
3705.000000	98.035051 
3704.000000	98.044166 
3703.000000	98.044619 
3702.000000	98.038969 
3701.000000	98.034014 
3700.000000	98.034101 
3699.000000	98.037409 
3698.000000	98.040038 
3697.000000	98.041592 
3696.000000	98.045471 
3695.000000	98.053812 
3694.000000	98.064932 
3693.000000	98.076582 
3692.000000	98.088544 
3691.000000	98.100854 
3690.000000	98.109392 
3689.000000	98.108134 
3688.000000	98.097209 
3687.000000	98.085191 
3686.000000	98.080301 
3685.000000	98.083839 
3684.000000	98.092345 
3683.000000	98.101344 
3682.000000	98.108533 
3681.000000	98.113735 
3680.000000	98.116597 
3679.000000	98.114869 
3678.000000	98.106198 
3677.000000	98.092012 
3676.000000	98.078609 
3675.000000	98.071249 
3674.000000	98.069148 
3673.000000	98.068263 
3672.000000	98.067462 
3671.000000	98.070986 
3670.000000	98.081636 
3669.000000	98.094050 
3668.000000	98.100379 
3667.000000	98.100322 
3666.000000	98.102089 
3665.000000	98.114528 
3664.000000	98.137958 
3663.000000	98.162466 
3662.000000	98.176576 
3661.000000	98.178161 
3660.000000	98.174221 
3659.000000	98.170866 
3658.000000	98.167035 
3657.000000	98.159107 
3656.000000	98.149269 
3655.000000	98.144716 
3654.000000	98.148948 
3653.000000	98.158428 
3652.000000	98.166559 
3651.000000	98.167731 
3650.000000	98.159736 
3649.000000	98.144640 
3648.000000	98.127421 
3647.000000	98.113779 
3646.000000	98.107332 
3645.000000	98.108557 
3644.000000	98.117952 
3643.000000	98.136140 
3642.000000	98.158687 
3641.000000	98.174930 
3640.000000	98.175872 
3639.000000	98.163322 
3638.000000	98.148514 
3637.000000	98.141610 
3636.000000	98.144088 
3635.000000	98.150831 
3634.000000	98.156971 
3633.000000	98.160866 
3632.000000	98.162628 
3631.000000	98.162957 
3630.000000	98.163194 
3629.000000	98.163469 
3628.000000	98.161937 
3627.000000	98.158395 
3626.000000	98.155839 
3625.000000	98.157386 
3624.000000	98.163284 
3623.000000	98.170712 
3622.000000	98.176523 
3621.000000	98.180492 
3620.000000	98.184987 
3619.000000	98.191167 
3618.000000	98.196983 
3617.000000	98.199463 
3616.000000	98.196845 
3615.000000	98.189027 
3614.000000	98.178638 
3613.000000	98.171162 
3612.000000	98.172848 
3611.000000	98.187876 
3610.000000	98.215042 
3609.000000	98.245942 
3608.000000	98.268033 
3607.000000	98.274405 
3606.000000	98.270938 
3605.000000	98.271219 
3604.000000	98.284448 
3603.000000	98.307447 
3602.000000	98.328059 
3601.000000	98.336182 
3600.000000	98.332784 
3599.000000	98.328032 
3598.000000	98.332128 
3597.000000	98.348464 
3596.000000	98.372281 
3595.000000	98.393830 
3594.000000	98.404151 
3593.000000	98.399809 
3592.000000	98.382542 
3591.000000	98.356752 
3590.000000	98.328792 
3589.000000	98.308410 
3588.000000	98.305099 
3587.000000	98.320479 
3586.000000	98.347997 
3585.000000	98.380116 
3584.000000	98.410926 
3583.000000	98.434139 
3582.000000	98.445255 
3581.000000	98.445305 
3580.000000	98.441160 
3579.000000	98.440591 
3578.000000	98.446675 
3577.000000	98.456887 
3576.000000	98.466265 
3575.000000	98.471015 
3574.000000	98.470056 
3573.000000	98.465626 
3572.000000	98.462282 
3571.000000	98.464648 
3570.000000	98.474340 
3569.000000	98.488576 
3568.000000	98.500973 
3567.000000	98.505452 
3566.000000	98.501405 
3565.000000	98.495174 
3564.000000	98.494424 
3563.000000	98.502149 
3562.000000	98.517035 
3561.000000	98.537081 
3560.000000	98.560672 
3559.000000	98.585201 
3558.000000	98.605873 
3557.000000	98.617487 
3556.000000	98.618617 
3555.000000	98.613947 
3554.000000	98.611485 
3553.000000	98.616666 
3552.000000	98.629371 
3551.000000	98.646472 
3550.000000	98.664965 
3549.000000	98.681159 
3548.000000	98.689798 
3547.000000	98.688215 
3546.000000	98.681727 
3545.000000	98.680870 
3544.000000	98.690580 
3543.000000	98.704569 
3542.000000	98.712561 
3541.000000	98.711795 
3540.000000	98.709618 
3539.000000	98.715682 
3538.000000	98.733253 
3537.000000	98.757507 
3536.000000	98.779806 
3535.000000	98.793460 
3534.000000	98.797414 
3533.000000	98.796253 
3532.000000	98.796616 
3531.000000	98.802639 
3530.000000	98.813460 
3529.000000	98.823907 
3528.000000	98.827515 
3527.000000	98.821112 
3526.000000	98.809111 
3525.000000	98.802810 
3524.000000	98.812395 
3523.000000	98.837523 
3522.000000	98.867001 
3521.000000	98.888014 
3520.000000	98.894742 
3519.000000	98.890175 
3518.000000	98.883912 
3517.000000	98.887749 
3516.000000	98.907945 
3515.000000	98.938466 
3514.000000	98.963767 
3513.000000	98.971815 
3512.000000	98.964184 
3511.000000	98.952099 
3510.000000	98.943657 
3509.000000	98.937592 
3508.000000	98.929065 
3507.000000	98.917741 
3506.000000	98.908595 
3505.000000	98.906791 
3504.000000	98.912833 
3503.000000	98.921929 
3502.000000	98.928222 
3501.000000	98.929740 
3500.000000	98.928932 
3499.000000	98.929244 
3498.000000	98.932833 
3497.000000	98.940966 
3496.000000	98.953588 
3495.000000	98.967078 
3494.000000	98.975008 
3493.000000	98.974353 
3492.000000	98.970375 
3491.000000	98.972481 
3490.000000	98.984474 
3489.000000	99.000498 
3488.000000	99.011386 
3487.000000	99.013407 
3486.000000	99.010191 
3485.000000	99.007921 
3484.000000	99.009942 
3483.000000	99.014219 
3482.000000	99.014343 
3481.000000	99.004978 
3480.000000	98.988830 
3479.000000	98.977329 
3478.000000	98.981226 
3477.000000	98.999278 
3476.000000	99.018003 
3475.000000	99.024301 
3474.000000	99.017674 
3473.000000	99.008218 
3472.000000	99.004353 
3471.000000	99.005859 
3470.000000	99.008601 
3469.000000	99.011829 
3468.000000	99.018380 
3467.000000	99.030034 
3466.000000	99.045428 
3465.000000	99.061440 
3464.000000	99.074216 
3463.000000	99.080079 
3462.000000	99.078990 
3461.000000	99.077242 
3460.000000	99.083370 
3459.000000	99.099589 
3458.000000	99.118649 
3457.000000	99.130282 
3456.000000	99.129837 
3455.000000	99.120622 
3454.000000	99.109826 
3453.000000	99.103500 
3452.000000	99.104112 
3451.000000	99.110260 
3450.000000	99.117916 
3449.000000	99.122842 
3448.000000	99.123059 
3447.000000	99.119920 
3446.000000	99.116788 
3445.000000	99.115704 
3444.000000	99.114918 
3443.000000	99.110696 
3442.000000	99.102469 
3441.000000	99.094984 
3440.000000	99.093465 
3439.000000	99.097557 
3438.000000	99.102147 
3437.000000	99.103734 
3436.000000	99.103455 
3435.000000	99.103306 
3434.000000	99.102170 
3433.000000	99.097680 
3432.000000	99.090929 
3431.000000	99.087215 
3430.000000	99.091501 
3429.000000	99.103470 
3428.000000	99.117207 
3427.000000	99.126209 
3426.000000	99.128846 
3425.000000	99.127938 
3424.000000	99.124801 
3423.000000	99.116012 
3422.000000	99.098489 
3421.000000	99.076365 
3420.000000	99.059246 
3419.000000	99.053600 
3418.000000	99.058549 
3417.000000	99.069516 
3416.000000	99.081849 
3415.000000	99.090187 
3414.000000	99.088979 
3413.000000	99.077384 
3412.000000	99.062025 
3411.000000	99.051826 
3410.000000	99.050136 
3409.000000	99.052854 
3408.000000	99.053136 
3407.000000	99.046767 
3406.000000	99.034177 
3405.000000	99.019103 
3404.000000	99.005464 
3403.000000	98.994846 
3402.000000	98.986771 
3401.000000	98.980557 
3400.000000	98.975396 
3399.000000	98.969013 
3398.000000	98.958858 
3397.000000	98.945691 
3396.000000	98.934139 
3395.000000	98.928360 
3394.000000	98.928407 
3393.000000	98.931871 
3392.000000	98.937640 
3391.000000	98.946437 
3390.000000	98.958152 
3389.000000	98.970027 
3388.000000	98.978133 
3387.000000	98.981004 
3386.000000	98.981859 
3385.000000	98.985670 
3384.000000	98.992248 
3383.000000	98.993383 
3382.000000	98.979931 
3381.000000	98.952324 
3380.000000	98.922302 
3379.000000	98.903693 
3378.000000	98.902055 
3377.000000	98.911988 
3376.000000	98.921696 
3375.000000	98.920951 
3374.000000	98.908764 
3373.000000	98.895085 
3372.000000	98.892464 
3371.000000	98.904174 
3370.000000	98.921678 
3369.000000	98.933828 
3368.000000	98.936514 
3367.000000	98.933493 
3366.000000	98.931268 
3365.000000	98.934031 
3364.000000	98.940383 
3363.000000	98.943602 
3362.000000	98.938101 
3361.000000	98.926948 
3360.000000	98.919584 
3359.000000	98.920386 
3358.000000	98.922892 
3357.000000	98.917759 
3356.000000	98.903241 
3355.000000	98.884886 
3354.000000	98.868040 
3353.000000	98.854832 
3352.000000	98.846669 
3351.000000	98.845084 
3350.000000	98.849821 
3349.000000	98.858466 
3348.000000	98.867681 
3347.000000	98.873246 
3346.000000	98.870728 
3345.000000	98.859591 
3344.000000	98.846489 
3343.000000	98.841269 
3342.000000	98.847912 
3341.000000	98.859874 
3340.000000	98.864782 
3339.000000	98.854357 
3338.000000	98.831133 
3337.000000	98.806062 
3336.000000	98.788703 
3335.000000	98.779511 
3334.000000	98.772321 
3333.000000	98.762399 
3332.000000	98.748927 
3331.000000	98.731502 
3330.000000	98.710631 
3329.000000	98.693206 
3328.000000	98.690527 
3327.000000	98.705337 
3326.000000	98.724857 
3325.000000	98.732694 
3324.000000	98.725466 
3323.000000	98.712242 
3322.000000	98.699470 
3321.000000	98.683637 
3320.000000	98.659698 
3319.000000	98.630417 
3318.000000	98.603626 
3317.000000	98.583480 
3316.000000	98.568167 
3315.000000	98.555089 
3314.000000	98.545127 
3313.000000	98.540641 
3312.000000	98.540203 
3311.000000	98.536896 
3310.000000	98.523320 
3309.000000	98.498555 
3308.000000	98.468722 
3307.000000	98.440144 
3306.000000	98.413614 
3305.000000	98.386260 
3304.000000	98.356829 
3303.000000	98.327107 
3302.000000	98.299667 
3301.000000	98.276188 
3300.000000	98.256523 
3299.000000	98.237171 
3298.000000	98.212181 
3297.000000	98.178652 
3296.000000	98.141069 
3295.000000	98.107476 
3294.000000	98.081021 
3293.000000	98.057194 
3292.000000	98.029805 
3291.000000	97.998329 
3290.000000	97.968925 
3289.000000	97.948967 
3288.000000	97.940324 
3287.000000	97.936801 
3286.000000	97.928012 
3285.000000	97.906595 
3284.000000	97.872471 
3283.000000	97.831561 
3282.000000	97.792133 
3281.000000	97.761773 
3280.000000	97.744385 
3279.000000	97.737867 
3278.000000	97.735836 
3277.000000	97.732731 
3276.000000	97.726223 
3275.000000	97.715003 
3274.000000	97.697853 
3273.000000	97.676579 
3272.000000	97.656105 
3271.000000	97.638329 
3270.000000	97.618316 
3269.000000	97.590290 
3268.000000	97.555856 
3267.000000	97.522539 
3266.000000	97.495073 
3265.000000	97.471706 
3264.000000	97.448901 
3263.000000	97.426269 
3262.000000	97.406152 
3261.000000	97.390718 
3260.000000	97.379733 
3259.000000	97.369007 
3258.000000	97.350989 
3257.000000	97.319649 
3256.000000	97.276141 
3255.000000	97.228518 
3254.000000	97.185416 
3253.000000	97.150817 
3252.000000	97.124023 
3251.000000	97.101873 
3250.000000	97.079675 
3249.000000	97.051802 
3248.000000	97.013952 
3247.000000	96.966260 
3246.000000	96.914530 
3245.000000	96.867587 
3244.000000	96.831631 
3243.000000	96.806089 
3242.000000	96.785030 
3241.000000	96.762046 
3240.000000	96.732901 
3239.000000	96.695138 
3238.000000	96.648952 
3237.000000	96.599441 
3236.000000	96.554275 
3235.000000	96.516250 
3234.000000	96.480102 
3233.000000	96.439123 
3232.000000	96.393114 
3231.000000	96.347531 
3230.000000	96.307007 
3229.000000	96.273032 
3228.000000	96.246067 
3227.000000	96.225192 
3226.000000	96.205576 
3225.000000	96.180673 
3224.000000	96.148806 
3223.000000	96.114965 
3222.000000	96.084081 
3221.000000	96.053974 
3220.000000	96.016992 
3219.000000	95.968570 
3218.000000	95.912854 
3217.000000	95.859172 
3216.000000	95.813255 
3215.000000	95.772739 
3214.000000	95.731849 
3213.000000	95.689450 
3212.000000	95.650244 
3211.000000	95.617999 
3210.000000	95.590358 
3209.000000	95.561557 
3208.000000	95.527713 
3207.000000	95.487311 
3206.000000	95.439052 
3205.000000	95.383160 
3204.000000	95.324488 
3203.000000	95.270660 
3202.000000	95.225307 
3201.000000	95.184138 
3200.000000	95.138638 
3199.000000	95.083715 
3198.000000	95.022151 
3197.000000	94.961925 
3196.000000	94.908419 
3195.000000	94.858724 
3194.000000	94.804159 
3193.000000	94.738469 
3192.000000	94.662324 
3191.000000	94.579821 
3190.000000	94.493380 
3189.000000	94.404074 
