PE IR                   SPECTRUM    ASCII       PEDS        1.60        
  -1
~SP.SP
18/03/23
17:07:45.00
18/03/23
17:07:45.00
pili
Irradiada
650.000000
4









SPECTRUM 100,CPU32 MAIN 00.02.8200 12-DECEMBER-2006 10:00:00
MIR TGS
MIR
OPTKBR
78890
0.200000

4.000000
STRONG
RATIO
SPECTRUM
MAGNITUDE
UNIVERSAL ATR
DOUBLE

COMBINED


0


#HDR
-1
-1
#GR
CM-1
%T
0.00002384185791015625
0.0
4000.000000
-1.000000
3351
8
98.875759
50.011073
#DATA
4000.000000	98.110853 
3999.000000	98.108354 
3998.000000	98.105029 
3997.000000	98.104588 
3996.000000	98.107548 
3995.000000	98.112841 
3994.000000	98.120295 
3993.000000	98.130010 
3992.000000	98.139910 
3991.000000	98.145658 
3990.000000	98.143642 
3989.000000	98.133408 
3988.000000	98.117390 
3987.000000	98.099504 
3986.000000	98.084268 
3985.000000	98.075632 
3984.000000	98.074818 
3983.000000	98.079254 
3982.000000	98.084659 
3981.000000	98.088507 
3980.000000	98.091183 
3979.000000	98.093781 
3978.000000	98.095764 
3977.000000	98.095623 
3976.000000	98.093582 
3975.000000	98.092190 
3974.000000	98.093220 
3973.000000	98.094598 
3972.000000	98.092093 
3971.000000	98.084683 
3970.000000	98.076825 
3969.000000	98.074267 
3968.000000	98.078117 
3967.000000	98.084554 
3966.000000	98.089905 
3965.000000	98.094023 
3964.000000	98.097914 
3963.000000	98.099895 
3962.000000	98.096338 
3961.000000	98.086451 
3960.000000	98.074596 
3959.000000	98.067120 
3958.000000	98.066870 
3957.000000	98.071293 
3956.000000	98.075522 
3955.000000	98.077312 
3954.000000	98.079057 
3953.000000	98.085031 
3952.000000	98.097358 
3951.000000	98.114385 
3950.000000	98.132191 
3949.000000	98.147091 
3948.000000	98.157355 
3947.000000	98.163539 
3946.000000	98.167214 
3945.000000	98.169018 
3944.000000	98.168274 
3943.000000	98.164877 
3942.000000	98.160400 
3941.000000	98.155952 
3940.000000	98.150195 
3939.000000	98.141614 
3938.000000	98.132181 
3937.000000	98.127005 
3936.000000	98.128974 
3935.000000	98.134556 
3934.000000	98.136647 
3933.000000	98.131609 
3932.000000	98.123177 
3931.000000	98.118378 
3930.000000	98.120627 
3929.000000	98.127633 
3928.000000	98.133769 
3927.000000	98.133386 
3926.000000	98.124178 
3925.000000	98.110438 
3924.000000	98.101052 
3923.000000	98.101417 
3922.000000	98.108574 
3921.000000	98.115776 
3920.000000	98.119569 
3919.000000	98.121059 
3918.000000	98.121552 
3917.000000	98.120449 
3916.000000	98.117656 
3915.000000	98.115051 
3914.000000	98.113922 
3913.000000	98.113579 
3912.000000	98.112693 
3911.000000	98.111949 
3910.000000	98.113250 
3909.000000	98.117325 
3908.000000	98.121929 
3907.000000	98.122914 
3906.000000	98.117794 
3905.000000	98.109951 
3904.000000	98.109491 
3903.000000	98.125036 
3902.000000	98.152955 
3901.000000	98.177515 
3900.000000	98.184418 
3899.000000	98.173821 
3898.000000	98.157890 
3897.000000	98.147699 
3896.000000	98.145827 
3895.000000	98.149703 
3894.000000	98.155419 
3893.000000	98.158651 
3892.000000	98.155213 
3891.000000	98.146374 
3890.000000	98.138902 
3889.000000	98.137833 
3888.000000	98.140692 
3887.000000	98.139162 
3886.000000	98.129487 
3885.000000	98.120127 
3884.000000	98.122019 
3883.000000	98.135665 
3882.000000	98.151060 
3881.000000	98.157386 
3880.000000	98.153053 
3879.000000	98.144927 
3878.000000	98.139183 
3877.000000	98.136931 
3876.000000	98.135227 
3875.000000	98.131515 
3874.000000	98.129349 
3873.000000	98.136177 
3872.000000	98.152084 
3871.000000	98.164876 
3870.000000	98.163512 
3869.000000	98.153473 
3868.000000	98.147777 
3867.000000	98.149964 
3866.000000	98.152804 
3865.000000	98.149755 
3864.000000	98.142408 
3863.000000	98.137165 
3862.000000	98.137769 
3861.000000	98.144113 
3860.000000	98.151746 
3859.000000	98.154443 
3858.000000	98.148799 
3857.000000	98.138446 
3856.000000	98.131998 
3855.000000	98.133130 
3854.000000	98.133678 
3853.000000	98.129411 
3852.000000	98.126958 
3851.000000	98.130251 
3850.000000	98.137581 
3849.000000	98.147182 
3848.000000	98.158967 
3847.000000	98.172384 
3846.000000	98.184452 
3845.000000	98.191070 
3844.000000	98.189413 
3843.000000	98.181255 
3842.000000	98.171301 
3841.000000	98.161719 
3840.000000	98.149517 
3839.000000	98.133417 
3838.000000	98.119823 
3837.000000	98.118190 
3836.000000	98.130892 
3835.000000	98.151058 
3834.000000	98.168120 
3833.000000	98.174967 
3832.000000	98.172663 
3831.000000	98.168790 
3830.000000	98.169695 
3829.000000	98.175508 
3828.000000	98.180475 
3827.000000	98.178298 
3826.000000	98.167766 
3825.000000	98.153268 
3824.000000	98.139576 
3823.000000	98.127883 
3822.000000	98.115553 
3821.000000	98.103788 
3820.000000	98.099533 
3819.000000	98.104779 
3818.000000	98.113847 
3817.000000	98.119562 
3816.000000	98.123067 
3815.000000	98.132667 
3814.000000	98.149521 
3813.000000	98.164209 
3812.000000	98.168179 
3811.000000	98.162271 
3810.000000	98.153873 
3809.000000	98.147160 
3808.000000	98.139073 
3807.000000	98.129313 
3806.000000	98.127533 
3805.000000	98.143267 
3804.000000	98.173042 
3803.000000	98.198747 
3802.000000	98.201259 
3801.000000	98.183992 
3800.000000	98.167489 
3799.000000	98.162537 
3798.000000	98.164308 
3797.000000	98.163922 
3796.000000	98.159754 
3795.000000	98.156804 
3794.000000	98.158929 
3793.000000	98.165661 
3792.000000	98.175174 
3791.000000	98.185434 
3790.000000	98.193281 
3789.000000	98.195650 
3788.000000	98.192740 
3787.000000	98.188084 
3786.000000	98.184626 
3785.000000	98.181984 
3784.000000	98.178541 
3783.000000	98.174640 
3782.000000	98.172422 
3781.000000	98.173779 
3780.000000	98.178571 
3779.000000	98.185255 
3778.000000	98.190825 
3777.000000	98.190779 
3776.000000	98.181259 
3775.000000	98.163388 
3774.000000	98.144189 
3773.000000	98.131034 
3772.000000	98.124462 
3771.000000	98.119380 
3770.000000	98.114680 
3769.000000	98.117325 
3768.000000	98.132723 
3767.000000	98.154706 
3766.000000	98.168161 
3765.000000	98.162743 
3764.000000	98.142982 
3763.000000	98.123572 
3762.000000	98.117601 
3761.000000	98.130512 
3760.000000	98.157778 
3759.000000	98.185991 
3758.000000	98.200862 
3757.000000	98.199132 
3756.000000	98.189625 
3755.000000	98.182094 
3754.000000	98.177769 
3753.000000	98.171285 
3752.000000	98.160595 
3751.000000	98.151382 
3750.000000	98.149804 
3749.000000	98.155845 
3748.000000	98.167385 
3747.000000	98.181693 
3746.000000	98.190737 
3745.000000	98.186443 
3744.000000	98.177890 
3743.000000	98.179488 
3742.000000	98.188603 
3741.000000	98.194105 
3740.000000	98.191978 
3739.000000	98.188321 
3738.000000	98.188961 
3737.000000	98.191046 
3736.000000	98.190758 
3735.000000	98.193133 
3734.000000	98.202964 
3733.000000	98.211779 
3732.000000	98.206722 
3731.000000	98.186900 
3730.000000	98.164858 
3729.000000	98.154291 
3728.000000	98.159313 
3727.000000	98.173572 
3726.000000	98.187059 
3725.000000	98.191927 
3724.000000	98.185736 
3723.000000	98.173091 
3722.000000	98.163370 
3721.000000	98.163715 
3720.000000	98.172669 
3719.000000	98.182398 
3718.000000	98.186406 
3717.000000	98.186131 
3716.000000	98.188063 
3715.000000	98.195269 
3714.000000	98.203670 
3713.000000	98.206071 
3712.000000	98.199950 
3711.000000	98.190209 
3710.000000	98.183545 
3709.000000	98.181897 
3708.000000	98.183991 
3707.000000	98.189846 
3706.000000	98.201467 
3705.000000	98.218627 
3704.000000	98.234559 
3703.000000	98.238592 
3702.000000	98.226528 
3701.000000	98.208577 
3700.000000	98.200950 
3699.000000	98.210369 
3698.000000	98.228536 
3697.000000	98.241587 
3696.000000	98.242411 
3695.000000	98.233541 
3694.000000	98.221432 
3693.000000	98.212274 
3692.000000	98.210800 
3691.000000	98.216606 
3690.000000	98.221471 
3689.000000	98.216422 
3688.000000	98.203854 
3687.000000	98.195854 
3686.000000	98.201565 
3685.000000	98.219309 
3684.000000	98.240209 
3683.000000	98.257085 
3682.000000	98.267972 
3681.000000	98.272772 
3680.000000	98.272049 
3679.000000	98.268644 
3678.000000	98.264283 
3677.000000	98.251763 
3676.000000	98.221477 
3675.000000	98.183826 
3674.000000	98.162487 
3673.000000	98.168921 
3672.000000	98.197214 
3671.000000	98.230536 
3670.000000	98.252829 
3669.000000	98.260423 
3668.000000	98.258470 
3667.000000	98.252400 
3666.000000	98.246327 
3665.000000	98.243775 
3664.000000	98.246400 
3663.000000	98.252158 
3662.000000	98.256561 
3661.000000	98.257002 
3660.000000	98.255674 
3659.000000	98.255755 
3658.000000	98.255355 
3657.000000	98.246882 
3656.000000	98.227652 
3655.000000	98.206381 
3654.000000	98.196007 
3653.000000	98.204132 
3652.000000	98.228471 
3651.000000	98.255803 
3650.000000	98.268860 
3649.000000	98.262397 
3648.000000	98.248052 
3647.000000	98.240796 
3646.000000	98.246515 
3645.000000	98.262177 
3644.000000	98.281056 
3643.000000	98.297327 
3642.000000	98.308305 
3641.000000	98.314172 
3640.000000	98.315253 
3639.000000	98.310541 
3638.000000	98.300301 
3637.000000	98.287815 
3636.000000	98.276861 
3635.000000	98.268534 
3634.000000	98.263012 
3633.000000	98.263040 
3632.000000	98.272231 
3631.000000	98.288469 
3630.000000	98.299708 
3629.000000	98.296101 
3628.000000	98.284758 
3627.000000	98.276650 
3626.000000	98.272377 
3625.000000	98.267145 
3624.000000	98.258711 
3623.000000	98.249798 
3622.000000	98.245402 
3621.000000	98.248685 
3620.000000	98.258788 
3619.000000	98.271787 
3618.000000	98.283335 
3617.000000	98.290751 
3616.000000	98.292977 
3615.000000	98.289138 
3614.000000	98.279908 
3613.000000	98.271440 
3612.000000	98.273633 
3611.000000	98.291190 
3610.000000	98.318025 
3609.000000	98.340962 
3608.000000	98.350267 
3607.000000	98.346925 
3606.000000	98.339872 
3605.000000	98.339188 
3604.000000	98.350880 
3603.000000	98.372974 
3602.000000	98.394676 
3601.000000	98.403488 
3600.000000	98.396518 
3599.000000	98.382369 
3598.000000	98.372601 
3597.000000	98.372648 
3596.000000	98.379842 
3595.000000	98.386652 
3594.000000	98.387420 
3593.000000	98.382281 
3592.000000	98.376382 
3591.000000	98.375134 
3590.000000	98.379808 
3589.000000	98.386276 
3588.000000	98.390254 
3587.000000	98.393411 
3586.000000	98.400340 
3585.000000	98.411748 
3584.000000	98.424769 
3583.000000	98.436244 
3582.000000	98.443499 
3581.000000	98.444742 
3580.000000	98.441383 
3579.000000	98.439042 
3578.000000	98.443446 
3577.000000	98.454540 
3576.000000	98.465207 
3575.000000	98.466763 
3574.000000	98.455889 
3573.000000	98.437124 
3572.000000	98.419893 
3571.000000	98.413333 
3570.000000	98.421376 
3569.000000	98.439984 
3568.000000	98.459654 
3567.000000	98.474022 
3566.000000	98.484448 
3565.000000	98.494345 
3564.000000	98.503565 
3563.000000	98.509218 
3562.000000	98.508911 
3561.000000	98.502680 
3560.000000	98.493289 
3559.000000	98.485366 
3558.000000	98.483364 
3557.000000	98.489384 
3556.000000	98.502231 
3555.000000	98.518481 
3554.000000	98.534669 
3553.000000	98.549483 
3552.000000	98.564483 
3551.000000	98.581960 
3550.000000	98.601429 
3549.000000	98.618104 
3548.000000	98.625081 
3547.000000	98.618350 
3546.000000	98.601299 
3545.000000	98.583988 
3544.000000	98.576469 
3543.000000	98.582069 
3542.000000	98.595949 
3541.000000	98.609836 
3540.000000	98.618311 
3539.000000	98.621286 
3538.000000	98.621407 
3537.000000	98.620497 
3536.000000	98.619431 
3535.000000	98.619756 
3534.000000	98.623559 
3533.000000	98.631143 
3532.000000	98.640618 
3531.000000	98.650150 
3530.000000	98.659671 
3529.000000	98.669495 
3528.000000	98.678546 
3527.000000	98.685267 
3526.000000	98.689542 
3525.000000	98.692222 
3524.000000	98.693405 
3523.000000	98.693069 
3522.000000	98.693196 
3521.000000	98.696766 
3520.000000	98.703681 
3519.000000	98.709723 
3518.000000	98.711741 
3517.000000	98.712724 
3516.000000	98.719325 
3515.000000	98.734222 
3514.000000	98.752843 
3513.000000	98.767648 
3512.000000	98.774091 
3511.000000	98.772171 
3510.000000	98.764123 
3509.000000	98.752118 
3508.000000	98.738168 
3507.000000	98.725214 
3506.000000	98.717291 
3505.000000	98.717104 
3504.000000	98.722567 
3503.000000	98.726705 
3502.000000	98.723104 
3501.000000	98.711639 
3500.000000	98.698432 
3499.000000	98.691274 
3498.000000	98.695905 
3497.000000	98.713930 
3496.000000	98.740202 
3495.000000	98.762479 
3494.000000	98.768424 
3493.000000	98.756360 
3492.000000	98.737717 
3491.000000	98.726841 
3490.000000	98.729095 
3489.000000	98.739531 
3488.000000	98.751024 
3487.000000	98.760445 
3486.000000	98.767886 
3485.000000	98.773774 
3484.000000	98.778074 
3483.000000	98.779728 
3482.000000	98.775636 
3481.000000	98.762638 
3480.000000	98.742750 
3479.000000	98.724999 
3478.000000	98.719181 
3477.000000	98.726879 
3476.000000	98.739699 
3475.000000	98.747209 
3474.000000	98.746464 
3473.000000	98.742988 
3472.000000	98.743382 
3471.000000	98.748741 
3470.000000	98.755441 
3469.000000	98.760444 
3468.000000	98.764053 
3467.000000	98.768114 
3466.000000	98.773086 
3465.000000	98.777251 
3464.000000	98.778147 
3463.000000	98.775300 
3462.000000	98.773017 
3461.000000	98.779701 
3460.000000	98.801299 
3459.000000	98.833584 
3458.000000	98.862688 
3457.000000	98.875759 
3456.000000	98.871159 
3455.000000	98.857313 
3454.000000	98.843163 
3453.000000	98.832509 
3452.000000	98.826845 
3451.000000	98.828094 
3450.000000	98.835191 
3449.000000	98.841128 
3448.000000	98.838820 
3447.000000	98.830396 
3446.000000	98.825984 
3445.000000	98.831147 
3444.000000	98.839301 
3443.000000	98.838758 
3442.000000	98.824903 
3441.000000	98.803453 
3440.000000	98.783753 
3439.000000	98.772503 
3438.000000	98.772667 
3437.000000	98.783149 
3436.000000	98.797711 
3435.000000	98.807679 
3434.000000	98.808632 
3433.000000	98.803385 
3432.000000	98.797194 
3431.000000	98.791960 
3430.000000	98.787236 
3429.000000	98.784726 
3428.000000	98.787853 
3427.000000	98.796668 
3426.000000	98.806243 
3425.000000	98.811076 
3424.000000	98.809082 
3423.000000	98.800864 
3422.000000	98.787953 
3421.000000	98.773442 
3420.000000	98.762153 
3419.000000	98.757301 
3418.000000	98.757337 
3417.000000	98.757587 
3416.000000	98.754526 
3415.000000	98.747489 
3414.000000	98.737710 
3413.000000	98.728216 
3412.000000	98.724355 
3411.000000	98.730942 
3410.000000	98.746358 
3409.000000	98.760831 
3408.000000	98.763541 
3407.000000	98.752623 
3406.000000	98.736824 
3405.000000	98.726338 
3404.000000	98.723327 
3403.000000	98.722674 
3402.000000	98.720737 
3401.000000	98.720043 
3400.000000	98.724300 
3399.000000	98.731475 
3398.000000	98.734328 
3397.000000	98.727058 
3396.000000	98.709905 
3395.000000	98.688611 
3394.000000	98.671789 
3393.000000	98.667878 
3392.000000	98.680479 
3391.000000	98.704360 
3390.000000	98.727241 
3389.000000	98.737373 
3388.000000	98.730974 
3387.000000	98.714137 
3386.000000	98.698818 
3385.000000	98.695063 
3384.000000	98.704061 
3383.000000	98.717579 
3382.000000	98.725071 
3381.000000	98.721501 
3380.000000	98.708570 
3379.000000	98.690981 
3378.000000	98.674006 
3377.000000	98.663032 
3376.000000	98.661096 
3375.000000	98.665831 
3374.000000	98.671508 
3373.000000	98.674992 
3372.000000	98.677849 
3371.000000	98.682581 
3370.000000	98.689638 
3369.000000	98.698667 
3368.000000	98.709437 
3367.000000	98.719917 
3366.000000	98.726141 
3365.000000	98.726192 
3364.000000	98.722662 
3363.000000	98.719598 
3362.000000	98.718594 
3361.000000	98.718971 
3360.000000	98.719601 
3359.000000	98.718661 
3358.000000	98.713632 
3357.000000	98.703940 
3356.000000	98.692358 
3355.000000	98.681569 
3354.000000	98.670266 
3353.000000	98.655001 
3352.000000	98.635577 
3351.000000	98.617087 
3350.000000	98.606598 
3349.000000	98.608183 
3348.000000	98.619680 
3347.000000	98.632961 
3346.000000	98.639305 
3345.000000	98.637143 
3344.000000	98.634221 
3343.000000	98.639684 
3342.000000	98.653285 
3341.000000	98.663712 
3340.000000	98.658290 
3339.000000	98.634453 
3338.000000	98.602057 
3337.000000	98.575041 
3336.000000	98.560614 
3335.000000	98.555755 
3334.000000	98.553146 
3333.000000	98.548491 
3332.000000	98.541201 
3331.000000	98.530873 
3330.000000	98.517798 
3329.000000	98.507386 
3328.000000	98.509151 
3327.000000	98.527444 
3326.000000	98.554921 
3325.000000	98.577916 
3324.000000	98.587220 
3323.000000	98.582129 
3322.000000	98.566724 
3321.000000	98.546215 
3320.000000	98.525920 
3319.000000	98.509257 
3318.000000	98.495188 
3317.000000	98.479978 
3316.000000	98.462560 
3315.000000	98.446486 
3314.000000	98.435572 
3313.000000	98.428905 
3312.000000	98.421175 
3311.000000	98.407346 
3310.000000	98.386715 
3309.000000	98.363278 
3308.000000	98.342467 
3307.000000	98.326598 
3306.000000	98.312626 
3305.000000	98.294528 
3304.000000	98.268477 
3303.000000	98.236246 
3302.000000	98.204122 
3301.000000	98.178470 
3300.000000	98.161556 
3299.000000	98.150682 
3298.000000	98.140876 
3297.000000	98.128162 
3296.000000	98.110398 
3295.000000	98.086326 
3294.000000	98.055841 
3293.000000	98.021494 
3292.000000	97.988136 
3291.000000	97.960112 
3290.000000	97.939444 
3289.000000	97.926698 
3288.000000	97.921559 
3287.000000	97.921125 
3286.000000	97.918820 
3285.000000	97.907340 
3284.000000	97.883761 
3283.000000	97.852042 
3282.000000	97.820644 
3281.000000	97.797051 
3280.000000	97.783166 
3279.000000	97.775347 
3278.000000	97.769112 
3277.000000	97.763357 
3276.000000	97.759319 
3275.000000	97.756581 
3274.000000	97.752258 
3273.000000	97.743739 
3272.000000	97.729838 
3271.000000	97.709340 
3270.000000	97.681477 
3269.000000	97.648954 
3268.000000	97.618045 
3267.000000	97.593992 
3266.000000	97.577506 
3265.000000	97.566061 
3264.000000	97.556293 
3263.000000	97.544673 
3262.000000	97.529063 
3261.000000	97.511318 
3260.000000	97.495463 
3259.000000	97.481345 
3258.000000	97.463026 
3257.000000	97.436176 
3256.000000	97.404470 
3255.000000	97.374981 
3254.000000	97.348935 
3253.000000	97.320890 
3252.000000	97.286592 
3251.000000	97.248302 
3250.000000	97.212132 
3249.000000	97.182465 
3248.000000	97.158748 
3247.000000	97.135477 
3246.000000	97.105861 
3245.000000	97.068455 
3244.000000	97.030673 
3243.000000	97.003213 
3242.000000	96.989780 
3241.000000	96.983169 
3240.000000	96.971670 
3239.000000	96.948727 
3238.000000	96.917008 
3237.000000	96.884633 
3236.000000	96.857574 
3235.000000	96.834512 
3234.000000	96.808640 
3233.000000	96.774740 
3232.000000	96.734102 
3231.000000	96.692441 
3230.000000	96.654763 
3229.000000	96.623485 
3228.000000	96.599470 
3227.000000	96.581806 
3226.000000	96.566755 
3225.000000	96.549655 
3224.000000	96.528569 
3223.000000	96.504435 
3222.000000	96.477282 
3221.000000	96.444302 
3220.000000	96.403052 
3219.000000	96.355903 
3218.000000	96.310080 
3217.000000	96.272733 
3216.000000	96.245425 
3215.000000	96.222933 
3214.000000	96.197804 
3213.000000	96.166895 
3212.000000	96.133506 
3211.000000	96.103084 
3210.000000	96.077425 
3209.000000	96.053160 
3208.000000	96.024687 
3207.000000	95.987870 
3206.000000	95.942484 
3205.000000	95.893223 
3204.000000	95.848025 
3203.000000	95.813081 
3202.000000	95.787951 
3201.000000	95.765727 
3200.000000	95.738579 
3199.000000	95.703876 
3198.000000	95.665576 
3197.000000	95.629623 
3196.000000	95.597026 
3195.000000	95.561200 
3194.000000	95.513309 
3193.000000	95.451190 
3192.000000	95.382406 
3191.000000	95.317393 
3190.000000	95.259760 
3189.000000	95.203813 
