PE IR                   SPECTRUM    ASCII       PEDS        1.60        
  -1
~SP.SP
18/03/23
17:28:09.00
18/03/23
17:28:09.00
pili
Irradiada
650.000000
4









SPECTRUM 100,CPU32 MAIN 00.02.8200 12-DECEMBER-2006 10:00:00
MIR TGS
MIR
OPTKBR
78890
0.200000

4.000000
STRONG
RATIO
SPECTRUM
MAGNITUDE
UNIVERSAL ATR
DOUBLE

COMBINED


0


#HDR
-1
-1
#GR
CM-1
%T
0.00002384185791015625
0.0
4000.000000
-1.000000
3351
8
98.642125
36.545900
#DATA
4000.000000	97.297123 
3999.000000	97.296259 
3998.000000	97.292809 
3997.000000	97.290313 
3996.000000	97.290602 
3995.000000	97.294149 
3994.000000	97.301238 
3993.000000	97.311883 
3992.000000	97.325090 
3991.000000	97.339059 
3990.000000	97.352033 
3989.000000	97.362406 
3988.000000	97.368374 
3987.000000	97.368546 
3986.000000	97.363275 
3985.000000	97.354803 
3984.000000	97.345431 
3983.000000	97.335836 
3982.000000	97.325906 
3981.000000	97.316982 
3980.000000	97.312007 
3979.000000	97.312492 
3978.000000	97.316031 
3977.000000	97.318214 
3976.000000	97.317373 
3975.000000	97.316102 
3974.000000	97.317150 
3973.000000	97.318689 
3972.000000	97.315515 
3971.000000	97.305161 
3970.000000	97.291682 
3969.000000	97.282757 
3968.000000	97.283392 
3967.000000	97.292651 
3966.000000	97.305393 
3965.000000	97.316087 
3964.000000	97.321157 
3963.000000	97.319062 
3962.000000	97.309684 
3961.000000	97.294419 
3960.000000	97.276935 
3959.000000	97.262866 
3958.000000	97.257438 
3957.000000	97.262632 
3956.000000	97.276574 
3955.000000	97.295458 
3954.000000	97.315607 
3953.000000	97.333896 
3952.000000	97.347659 
3951.000000	97.355664 
3950.000000	97.359304 
3949.000000	97.361930 
3948.000000	97.366080 
3947.000000	97.371189 
3946.000000	97.374170 
3945.000000	97.372436 
3944.000000	97.366772 
3943.000000	97.360987 
3942.000000	97.358051 
3941.000000	97.356911 
3940.000000	97.354257 
3939.000000	97.348786 
3938.000000	97.342749 
3937.000000	97.339094 
3936.000000	97.337842 
3935.000000	97.335994 
3934.000000	97.330979 
3933.000000	97.323891 
3932.000000	97.319015 
3931.000000	97.319752 
3930.000000	97.325199 
3929.000000	97.330579 
3928.000000	97.330738 
3927.000000	97.323895 
3926.000000	97.313172 
3925.000000	97.304529 
3924.000000	97.302289 
3923.000000	97.306684 
3922.000000	97.315384 
3921.000000	97.326176 
3920.000000	97.337700 
3919.000000	97.348409 
3918.000000	97.356073 
3917.000000	97.359090 
3916.000000	97.358271 
3915.000000	97.356642 
3914.000000	97.357145 
3913.000000	97.360104 
3912.000000	97.362763 
3911.000000	97.361545 
3910.000000	97.355523 
3909.000000	97.347971 
3908.000000	97.344097 
3907.000000	97.346855 
3906.000000	97.354264 
3905.000000	97.361396 
3904.000000	97.365666 
3903.000000	97.369360 
3902.000000	97.375667 
3901.000000	97.383738 
3900.000000	97.389459 
3899.000000	97.390491 
3898.000000	97.388712 
3897.000000	97.387550 
3896.000000	97.388572 
3895.000000	97.390680 
3894.000000	97.391501 
3893.000000	97.389254 
3892.000000	97.384343 
3891.000000	97.378443 
3890.000000	97.371728 
3889.000000	97.362585 
3888.000000	97.350533 
3887.000000	97.339850 
3886.000000	97.339223 
3885.000000	97.353213 
3884.000000	97.376223 
3883.000000	97.397824 
3882.000000	97.410871 
3881.000000	97.414507 
3880.000000	97.411773 
3879.000000	97.405010 
3878.000000	97.394893 
3877.000000	97.383008 
3876.000000	97.373756 
3875.000000	97.372697 
3874.000000	97.381126 
3873.000000	97.393229 
3872.000000	97.400363 
3871.000000	97.398728 
3870.000000	97.392784 
3869.000000	97.389382 
3868.000000	97.390684 
3867.000000	97.394824 
3866.000000	97.399417 
3865.000000	97.401783 
3864.000000	97.398340 
3863.000000	97.387621 
3862.000000	97.373826 
3861.000000	97.363732 
3860.000000	97.359832 
3859.000000	97.357948 
3858.000000	97.352214 
3857.000000	97.341716 
3856.000000	97.331650 
3855.000000	97.330127 
3854.000000	97.342430 
3853.000000	97.362288 
3852.000000	97.376684 
3851.000000	97.381129 
3850.000000	97.381656 
3849.000000	97.386912 
3848.000000	97.401018 
3847.000000	97.421073 
3846.000000	97.439963 
3845.000000	97.451035 
3844.000000	97.451453 
3843.000000	97.442380 
3842.000000	97.427191 
3841.000000	97.410458 
3840.000000	97.398070 
3839.000000	97.395126 
3838.000000	97.401468 
3837.000000	97.410917 
3836.000000	97.416977 
3835.000000	97.417851 
3834.000000	97.415367 
3833.000000	97.411393 
3832.000000	97.406675 
3831.000000	97.401938 
3830.000000	97.398558 
3829.000000	97.397502 
3828.000000	97.398286 
3827.000000	97.399100 
3826.000000	97.397348 
3825.000000	97.390582 
3824.000000	97.378355 
3823.000000	97.364454 
3822.000000	97.357462 
3821.000000	97.363301 
3820.000000	97.376702 
3819.000000	97.387730 
3818.000000	97.392751 
3817.000000	97.396248 
3816.000000	97.404939 
3815.000000	97.418834 
3814.000000	97.430442 
3813.000000	97.433082 
3812.000000	97.425850 
3811.000000	97.412059 
3810.000000	97.395791 
3809.000000	97.380420 
3808.000000	97.369812 
3807.000000	97.367629 
3806.000000	97.372851 
3805.000000	97.379792 
3804.000000	97.383806 
3803.000000	97.385157 
3802.000000	97.388626 
3801.000000	97.397351 
3800.000000	97.407770 
3799.000000	97.414388 
3798.000000	97.416027 
3797.000000	97.415882 
3796.000000	97.417246 
3795.000000	97.420298 
3794.000000	97.423329 
3793.000000	97.425419 
3792.000000	97.426376 
3791.000000	97.425187 
3790.000000	97.420462 
3789.000000	97.412802 
3788.000000	97.405678 
3787.000000	97.402981 
3786.000000	97.405675 
3785.000000	97.411152 
3784.000000	97.416082 
3783.000000	97.419392 
3782.000000	97.422629 
3781.000000	97.428016 
3780.000000	97.436082 
3779.000000	97.444104 
3778.000000	97.447004 
3777.000000	97.440421 
3776.000000	97.423456 
3775.000000	97.399243 
3774.000000	97.373251 
3773.000000	97.350624 
3772.000000	97.335304 
3771.000000	97.330561 
3770.000000	97.338017 
3769.000000	97.355233 
3768.000000	97.375874 
3767.000000	97.392493 
3766.000000	97.399535 
3765.000000	97.396060 
3764.000000	97.387136 
3763.000000	97.381728 
3762.000000	97.387577 
3761.000000	97.405415 
3760.000000	97.425773 
3759.000000	97.434393 
3758.000000	97.425133 
3757.000000	97.405462 
3756.000000	97.388281 
3755.000000	97.380916 
3754.000000	97.381229 
3753.000000	97.381837 
3752.000000	97.378168 
3751.000000	97.373287 
3750.000000	97.373172 
3749.000000	97.378566 
3748.000000	97.385383 
3747.000000	97.389652 
3746.000000	97.389139 
3745.000000	97.386139 
3744.000000	97.385535 
3743.000000	97.386781 
3742.000000	97.386087 
3741.000000	97.383738 
3740.000000	97.383832 
3739.000000	97.388672 
3738.000000	97.395268 
3737.000000	97.400122 
3736.000000	97.405613 
3735.000000	97.416457 
3734.000000	97.430267 
3733.000000	97.437990 
3732.000000	97.433117 
3731.000000	97.417541 
3730.000000	97.399230 
3729.000000	97.386655 
3728.000000	97.385208 
3727.000000	97.395939 
3726.000000	97.413800 
3725.000000	97.429098 
3724.000000	97.434771 
3723.000000	97.432288 
3722.000000	97.429751 
3721.000000	97.434231 
3720.000000	97.445839 
3719.000000	97.458079 
3718.000000	97.463484 
3717.000000	97.459204 
3716.000000	97.448044 
3715.000000	97.436043 
3714.000000	97.428029 
3713.000000	97.426054 
3712.000000	97.428661 
3711.000000	97.432374 
3710.000000	97.434579 
3709.000000	97.435426 
3708.000000	97.437046 
3707.000000	97.439970 
3706.000000	97.442888 
3705.000000	97.443220 
3704.000000	97.440571 
3703.000000	97.436968 
3702.000000	97.434923 
3701.000000	97.434381 
3700.000000	97.434042 
3699.000000	97.434030 
3698.000000	97.436091 
3697.000000	97.441475 
3696.000000	97.448845 
3695.000000	97.456169 
3694.000000	97.462879 
3693.000000	97.471451 
3692.000000	97.484168 
3691.000000	97.499977 
3690.000000	97.512278 
3689.000000	97.513504 
3688.000000	97.502747 
3687.000000	97.486740 
3686.000000	97.474804 
3685.000000	97.472293 
3684.000000	97.479109 
3683.000000	97.490556 
3682.000000	97.501848 
3681.000000	97.510517 
3680.000000	97.515400 
3679.000000	97.513308 
3678.000000	97.499433 
3677.000000	97.474449 
3676.000000	97.451571 
3675.000000	97.445955 
3674.000000	97.456889 
3673.000000	97.473244 
3672.000000	97.487252 
3671.000000	97.498130 
3670.000000	97.507737 
3669.000000	97.515226 
3668.000000	97.518182 
3667.000000	97.517903 
3666.000000	97.519176 
3665.000000	97.525552 
3664.000000	97.535246 
3663.000000	97.542538 
3662.000000	97.543768 
3661.000000	97.541507 
3660.000000	97.541727 
3659.000000	97.546907 
3658.000000	97.552760 
3657.000000	97.552742 
3656.000000	97.545877 
3655.000000	97.537868 
3654.000000	97.535212 
3653.000000	97.540125 
3652.000000	97.549188 
3651.000000	97.554888 
3650.000000	97.551826 
3649.000000	97.544524 
3648.000000	97.544987 
3647.000000	97.559519 
3646.000000	97.582278 
3645.000000	97.602147 
3644.000000	97.612238 
3643.000000	97.613302 
3642.000000	97.610333 
3641.000000	97.606151 
3640.000000	97.598656 
3639.000000	97.584741 
3638.000000	97.565741 
3637.000000	97.547734 
3636.000000	97.536986 
3635.000000	97.536058 
3634.000000	97.544072 
3633.000000	97.559119 
3632.000000	97.579203 
3631.000000	97.599594 
3630.000000	97.612575 
3629.000000	97.614808 
3628.000000	97.612658 
3627.000000	97.615264 
3626.000000	97.625034 
3625.000000	97.636758 
3624.000000	97.642953 
3623.000000	97.640253 
3622.000000	97.632624 
3621.000000	97.628564 
3620.000000	97.633618 
3619.000000	97.644838 
3618.000000	97.654390 
3617.000000	97.657687 
3616.000000	97.655103 
3615.000000	97.648049 
3614.000000	97.637287 
3613.000000	97.625544 
3612.000000	97.619139 
3611.000000	97.624654 
3610.000000	97.642827 
3609.000000	97.666870 
3608.000000	97.687649 
3607.000000	97.700671 
3606.000000	97.708046 
3605.000000	97.713538 
3604.000000	97.718500 
3603.000000	97.721576 
3602.000000	97.721877 
3601.000000	97.721375 
3600.000000	97.723601 
3599.000000	97.731224 
3598.000000	97.744508 
3597.000000	97.761859 
3596.000000	97.780137 
3595.000000	97.796110 
3594.000000	97.807093 
3593.000000	97.811619 
3592.000000	97.809113 
3591.000000	97.801206 
3590.000000	97.793050 
3589.000000	97.792558 
3588.000000	97.804252 
3587.000000	97.823273 
3586.000000	97.841125 
3585.000000	97.855259 
3584.000000	97.868650 
3583.000000	97.881551 
3582.000000	97.889146 
3581.000000	97.887631 
3580.000000	97.879859 
3579.000000	97.873041 
3578.000000	97.871840 
3577.000000	97.876801 
3576.000000	97.886251 
3575.000000	97.896856 
3574.000000	97.901941 
3573.000000	97.895352 
3572.000000	97.878461 
3571.000000	97.861943 
3570.000000	97.857789 
3569.000000	97.870148 
3568.000000	97.893199 
3567.000000	97.918077 
3566.000000	97.940521 
3565.000000	97.961419 
3564.000000	97.981974 
3563.000000	98.001083 
3562.000000	98.016131 
3561.000000	98.024857 
3560.000000	98.026847 
3559.000000	98.024434 
3558.000000	98.022162 
3557.000000	98.024948 
3556.000000	98.036120 
3555.000000	98.056542 
3554.000000	98.083998 
3553.000000	98.113162 
3552.000000	98.137940 
3551.000000	98.155703 
3550.000000	98.168113 
3549.000000	98.176233 
3548.000000	98.176425 
3547.000000	98.164741 
3546.000000	98.146228 
3545.000000	98.135060 
3544.000000	98.141261 
3543.000000	98.160070 
3542.000000	98.177294 
3541.000000	98.183611 
3540.000000	98.181495 
3539.000000	98.180234 
3538.000000	98.187389 
3537.000000	98.205018 
3536.000000	98.229861 
3535.000000	98.254957 
3534.000000	98.273010 
3533.000000	98.280950 
3532.000000	98.281623 
3531.000000	98.280620 
3530.000000	98.281815 
3529.000000	98.285943 
3528.000000	98.291864 
3527.000000	98.297626 
3526.000000	98.301383 
3525.000000	98.303427 
3524.000000	98.307773 
3523.000000	98.320174 
3522.000000	98.343006 
3521.000000	98.371359 
3520.000000	98.394305 
3519.000000	98.402289 
3518.000000	98.396354 
3517.000000	98.390199 
3516.000000	98.399490 
3515.000000	98.427276 
3514.000000	98.460773 
3513.000000	98.483402 
3512.000000	98.488583 
3511.000000	98.481461 
3510.000000	98.470097 
3509.000000	98.458031 
3508.000000	98.444990 
3507.000000	98.431773 
3506.000000	98.422863 
3505.000000	98.424453 
3504.000000	98.439054 
3503.000000	98.460984 
3502.000000	98.478916 
3501.000000	98.484736 
3500.000000	98.479587 
3499.000000	98.471250 
3498.000000	98.467275 
3497.000000	98.470292 
3496.000000	98.476646 
3495.000000	98.477725 
3494.000000	98.465234 
3493.000000	98.439180 
3492.000000	98.410704 
3491.000000	98.394342 
3490.000000	98.396929 
3489.000000	98.415069 
3488.000000	98.441971 
3487.000000	98.472557 
3486.000000	98.501429 
3485.000000	98.520739 
3484.000000	98.524114 
3483.000000	98.512089 
3482.000000	98.492045 
3481.000000	98.473348 
3480.000000	98.463526 
3479.000000	98.466642 
3478.000000	98.481408 
3477.000000	98.500205 
3476.000000	98.512647 
3475.000000	98.512746 
3474.000000	98.503470 
3473.000000	98.494422 
3472.000000	98.495147 
3471.000000	98.509039 
3470.000000	98.531264 
3469.000000	98.552197 
3468.000000	98.564543 
3467.000000	98.568565 
3466.000000	98.570054 
3465.000000	98.573105 
3464.000000	98.576174 
3463.000000	98.575944 
3462.000000	98.573868 
3461.000000	98.576587 
3460.000000	98.589137 
3459.000000	98.608951 
3458.000000	98.627726 
3457.000000	98.638890 
3456.000000	98.642125 
3455.000000	98.640779 
3454.000000	98.636726 
3453.000000	98.629589 
3452.000000	98.620385 
3451.000000	98.613197 
3450.000000	98.611735 
3449.000000	98.615365 
3448.000000	98.620327 
3447.000000	98.624474 
3446.000000	98.628898 
3445.000000	98.634559 
3444.000000	98.639634 
3443.000000	98.641667 
3442.000000	98.640921 
3441.000000	98.639900 
3440.000000	98.639983 
3439.000000	98.640066 
3438.000000	98.638175 
3437.000000	98.633088 
3436.000000	98.624655 
3435.000000	98.613906 
3434.000000	98.602828 
3433.000000	98.593056 
3432.000000	98.585344 
3431.000000	98.581684 
3430.000000	98.586271 
3429.000000	98.600656 
3428.000000	98.617688 
3427.000000	98.624748 
3426.000000	98.616017 
3425.000000	98.598989 
3424.000000	98.586181 
3423.000000	98.582343 
3422.000000	98.582663 
3421.000000	98.581816 
3420.000000	98.580336 
3419.000000	98.581892 
3418.000000	98.587873 
3417.000000	98.595483 
3416.000000	98.598584 
3415.000000	98.590446 
3414.000000	98.569581 
3413.000000	98.544601 
3412.000000	98.529843 
3411.000000	98.532784 
3410.000000	98.546564 
3409.000000	98.556819 
3408.000000	98.555357 
3407.000000	98.546171 
3406.000000	98.539073 
3405.000000	98.539608 
3404.000000	98.545230 
3403.000000	98.549402 
3402.000000	98.547981 
3401.000000	98.541588 
3400.000000	98.532801 
3399.000000	98.522648 
3398.000000	98.510640 
3397.000000	98.497338 
3396.000000	98.485542 
3395.000000	98.478746 
3394.000000	98.478794 
3393.000000	98.484499 
3392.000000	98.491949 
3391.000000	98.497100 
3390.000000	98.499011 
3389.000000	98.499778 
3388.000000	98.500708 
3387.000000	98.500104 
3386.000000	98.496061 
3385.000000	98.489458 
3384.000000	98.481848 
3383.000000	98.472270 
3382.000000	98.459862 
3381.000000	98.448625 
3380.000000	98.445167 
3379.000000	98.450739 
3378.000000	98.458800 
3377.000000	98.461796 
3376.000000	98.457729 
3375.000000	98.449286 
3374.000000	98.439986 
3373.000000	98.433392 
3372.000000	98.433401 
3371.000000	98.442038 
3370.000000	98.457067 
3369.000000	98.472880 
3368.000000	98.483451 
3367.000000	98.485018 
3366.000000	98.478545 
3365.000000	98.470442 
3364.000000	98.468191 
3363.000000	98.473365 
3362.000000	98.480241 
3361.000000	98.482204 
3360.000000	98.477523 
3359.000000	98.468011 
3358.000000	98.455091 
3357.000000	98.439800 
3356.000000	98.424814 
3355.000000	98.413252 
3354.000000	98.405417 
3353.000000	98.398524 
3352.000000	98.389982 
3351.000000	98.380964 
3350.000000	98.377430 
3349.000000	98.386611 
3348.000000	98.409252 
3347.000000	98.434426 
3346.000000	98.446045 
3345.000000	98.437776 
3344.000000	98.419745 
3343.000000	98.407673 
3342.000000	98.406579 
3341.000000	98.407792 
3340.000000	98.400503 
3339.000000	98.382849 
3338.000000	98.361476 
3337.000000	98.343366 
3336.000000	98.329824 
3335.000000	98.317406 
3334.000000	98.303293 
3333.000000	98.288742 
3332.000000	98.276809 
3331.000000	98.267911 
3330.000000	98.260307 
3329.000000	98.255123 
3328.000000	98.257088 
3327.000000	98.267690 
3326.000000	98.280344 
3325.000000	98.285997 
3324.000000	98.282138 
3323.000000	98.272807 
3322.000000	98.260589 
3321.000000	98.242937 
3320.000000	98.217111 
3319.000000	98.185324 
3318.000000	98.153304 
3317.000000	98.125996 
3316.000000	98.106175 
3315.000000	98.094949 
3314.000000	98.090865 
3313.000000	98.088939 
3312.000000	98.082853 
3311.000000	98.069245 
3310.000000	98.049679 
3309.000000	98.028267 
3308.000000	98.007513 
3307.000000	97.986234 
3306.000000	97.960956 
3305.000000	97.929319 
3304.000000	97.893052 
3303.000000	97.858560 
3302.000000	97.833760 
3301.000000	97.821706 
3300.000000	97.815761 
3299.000000	97.802977 
3298.000000	97.775376 
3297.000000	97.738295 
3296.000000	97.705510 
3295.000000	97.685693 
3294.000000	97.675541 
3293.000000	97.666062 
3292.000000	97.652461 
3291.000000	97.636199 
3290.000000	97.619929 
3289.000000	97.604003 
3288.000000	97.587953 
3287.000000	97.572659 
3286.000000	97.559124 
3285.000000	97.545241 
3284.000000	97.525457 
3283.000000	97.495979 
3282.000000	97.461217 
3281.000000	97.432769 
3280.000000	97.418911 
3279.000000	97.415552 
3278.000000	97.410576 
3277.000000	97.397263 
3276.000000	97.380392 
3275.000000	97.368538 
3274.000000	97.364037 
3273.000000	97.362513 
3272.000000	97.358789 
3271.000000	97.350082 
3270.000000	97.335464 
3269.000000	97.315551 
3268.000000	97.292095 
3267.000000	97.265872 
3266.000000	97.236103 
3265.000000	97.203962 
3264.000000	97.175226 
3263.000000	97.156762 
3262.000000	97.150685 
3261.000000	97.153438 
3260.000000	97.159044 
3259.000000	97.160772 
3258.000000	97.151149 
3257.000000	97.124872 
3256.000000	97.083679 
3255.000000	97.036648 
3254.000000	96.994212 
3253.000000	96.961872 
3252.000000	96.938811 
3251.000000	96.920469 
3250.000000	96.901685 
3249.000000	96.878932 
3248.000000	96.851230 
3247.000000	96.819564 
3246.000000	96.785873 
3245.000000	96.752841 
3244.000000	96.723910 
3243.000000	96.702104 
3242.000000	96.687844 
3241.000000	96.677347 
3240.000000	96.663228 
3239.000000	96.638314 
3238.000000	96.601237 
3237.000000	96.558827 
3236.000000	96.521341 
3235.000000	96.494209 
3234.000000	96.474922 
3233.000000	96.457427 
3232.000000	96.437345 
3231.000000	96.412602 
3230.000000	96.382263 
3229.000000	96.347332 
3228.000000	96.311238 
3227.000000	96.277220 
3226.000000	96.246201 
3225.000000	96.218933 
3224.000000	96.198300 
3223.000000	96.186010 
3222.000000	96.177269 
3221.000000	96.162333 
3220.000000	96.135169 
3219.000000	96.099018 
3218.000000	96.062136 
3217.000000	96.029566 
3216.000000	96.000611 
3215.000000	95.972976 
3214.000000	95.946469 
3213.000000	95.921714 
3212.000000	95.897298 
3211.000000	95.870722 
3210.000000	95.842068 
3209.000000	95.814089 
3208.000000	95.787097 
3207.000000	95.755764 
3206.000000	95.713885 
3205.000000	95.662118 
3204.000000	95.608382 
3203.000000	95.559682 
3202.000000	95.515209 
3201.000000	95.468410 
3200.000000	95.414594 
3199.000000	95.355726 
3198.000000	95.298774 
3197.000000	95.249732 
3196.000000	95.207834 
3195.000000	95.164910 
3194.000000	95.111712 
3193.000000	95.045929 
3192.000000	94.973350 
3191.000000	94.900870 
3190.000000	94.829986 
3189.000000	94.758084 
