PE IR                   SPECTRUM    ASCII       PEDS        1.60        
  -1
~SP.SP
18/04/18
12:43:03.00
18/04/18
12:43:03.00
Claudia

650.000000
16









SPECTRUM 100,CPU32 MAIN 00.02.8200 12-DECEMBER-2006 10:00:00
MIR TGS
MIR
OPTKBR
78890
0.200000

4.000000
STRONG
RATIO
SPECTRUM
MAGNITUDE
UNIVERSAL ATR
DOUBLE

COMBINED


0


#HDR
-1
-1
#GR
CM-1
%T
0.00002384185791015625
0.0
4000.000000
-1.000000
3351
8
98.183500
29.588569
#DATA
4000.000000	97.801581 
3999.000000	97.802273 
3998.000000	97.804443 
3997.000000	97.810025 
3996.000000	97.818102 
3995.000000	97.840918 
3994.000000	97.845712 
3993.000000	97.845348 
3992.000000	97.841524 
3991.000000	97.836673 
3990.000000	97.832884 
3989.000000	97.831143 
3988.000000	97.831088 
3987.000000	97.831508 
3986.000000	97.831056 
3985.000000	97.828714 
3984.000000	97.824189 
3983.000000	97.818128 
3982.000000	97.811845 
3981.000000	97.806827 
3980.000000	97.804516 
3979.000000	97.806154 
3978.000000	97.811919 
3977.000000	97.819872 
3976.000000	97.826707 
3975.000000	97.830474 
3974.000000	97.832236 
3973.000000	97.834441 
3972.000000	97.837920 
3971.000000	97.841267 
3970.000000	97.842839 
3969.000000	97.842635 
3968.000000	97.842325 
3967.000000	97.843678 
3966.000000	97.846950 
3965.000000	97.850666 
3964.000000	97.853094 
3963.000000	97.854220 
3962.000000	97.856041 
3961.000000	97.860424 
3960.000000	97.866910 
3959.000000	97.873232 
3958.000000	97.877587 
3957.000000	97.879657 
3956.000000	97.880082 
3955.000000	97.879397 
3954.000000	97.877769 
3953.000000	97.875138 
3952.000000	97.871439 
3951.000000	97.867188 
3950.000000	97.863500 
3949.000000	97.861599 
3948.000000	97.862305 
3947.000000	97.866130 
3946.000000	97.873338 
3945.000000	97.883159 
3944.000000	97.893195 
3943.000000	97.900077 
3942.000000	97.901744 
3941.000000	97.899180 
3940.000000	97.895089 
3939.000000	97.891240 
3938.000000	97.888054 
3937.000000	97.885809 
3936.000000	97.885550 
3935.000000	97.887926 
3934.000000	97.891931 
3933.000000	97.895350 
3932.000000	97.896609 
3931.000000	97.896023 
3930.000000	97.894813 
3929.000000	97.893819 
3928.000000	97.893194 
3927.000000	97.892819 
3926.000000	97.893137 
3925.000000	97.894312 
3924.000000	97.894943 
3923.000000	97.893105 
3922.000000	97.887818 
3921.000000	97.879851 
3920.000000	97.871405 
3919.000000	97.864870 
3918.000000	97.861251 
3917.000000	97.859814 
3916.000000	97.859851 
3915.000000	97.861817 
3914.000000	97.865978 
3913.000000	97.870884 
3912.000000	97.874283 
3911.000000	97.875638 
3910.000000	97.876787 
3909.000000	97.879640 
3908.000000	97.885078 
3907.000000	97.892716 
3906.000000	97.901296 
3905.000000	97.907978 
3904.000000	97.908574 
3903.000000	97.902105 
3902.000000	97.893911 
3901.000000	97.890919 
3900.000000	97.895468 
3899.000000	97.904107 
3898.000000	97.912282 
3897.000000	97.918438 
3896.000000	97.922844 
3895.000000	97.926025 
3894.000000	97.929130 
3893.000000	97.932686 
3892.000000	97.934135 
3891.000000	97.928383 
3890.000000	97.915770 
3889.000000	97.903009 
3888.000000	97.895953 
3887.000000	97.895768 
3886.000000	97.899726 
3885.000000	97.903394 
3884.000000	97.905450 
3883.000000	97.908213 
3882.000000	97.913495 
3881.000000	97.920556 
3880.000000	97.926280 
3879.000000	97.927523 
3878.000000	97.925363 
3877.000000	97.922867 
3876.000000	97.921827 
3875.000000	97.922027 
3874.000000	97.921167 
3873.000000	97.917278 
3872.000000	97.912772 
3871.000000	97.913203 
3870.000000	97.920605 
3869.000000	97.931551 
3868.000000	97.941749 
3867.000000	97.947097 
3866.000000	97.944688 
3865.000000	97.937160 
3864.000000	97.931271 
3863.000000	97.930468 
3862.000000	97.930815 
3861.000000	97.926866 
3860.000000	97.919416 
3859.000000	97.914426 
3858.000000	97.916479 
3857.000000	97.924433 
3856.000000	97.933774 
3855.000000	97.941353 
3854.000000	97.941467 
3853.000000	97.925800 
3852.000000	97.902908 
3851.000000	97.893130 
3850.000000	97.900104 
3849.000000	97.913597 
3848.000000	97.923563 
3847.000000	97.926980 
3846.000000	97.926199 
3845.000000	97.924110 
3844.000000	97.922098 
3843.000000	97.921177 
3842.000000	97.921852 
3841.000000	97.924089 
3840.000000	97.927888 
3839.000000	97.932420 
3838.000000	97.936183 
3837.000000	97.938543 
3836.000000	97.941213 
3835.000000	97.946385 
3834.000000	97.953589 
3833.000000	97.960274 
3832.000000	97.963761 
3831.000000	97.962624 
3830.000000	97.957749 
3829.000000	97.950909 
3828.000000	97.943405 
3827.000000	97.937055 
3826.000000	97.934139 
3825.000000	97.935717 
3824.000000	97.940539 
3823.000000	97.946134 
3822.000000	97.950149 
3821.000000	97.949284 
3820.000000	97.943707 
3819.000000	97.940741 
3818.000000	97.945088 
3817.000000	97.953491 
3816.000000	97.959561 
3815.000000	97.960788 
3814.000000	97.960569 
3813.000000	97.961719 
3812.000000	97.962197 
3811.000000	97.959551 
3810.000000	97.954066 
3809.000000	97.947419 
3808.000000	97.940087 
3807.000000	97.931070 
3806.000000	97.920482 
3805.000000	97.911505 
3804.000000	97.906261 
3803.000000	97.905272 
3802.000000	97.908776 
3801.000000	97.913456 
3800.000000	97.917889 
3799.000000	97.925708 
3798.000000	97.938014 
3797.000000	97.951795 
3796.000000	97.962824 
3795.000000	97.968493 
3794.000000	97.969463 
3793.000000	97.969022 
3792.000000	97.970661 
3791.000000	97.975860 
3790.000000	97.981971 
3789.000000	97.983443 
3788.000000	97.977375 
3787.000000	97.967487 
3786.000000	97.961392 
3785.000000	97.963078 
3784.000000	97.968733 
3783.000000	97.970879 
3782.000000	97.965716 
3781.000000	97.956313 
3780.000000	97.949801 
3779.000000	97.950732 
3778.000000	97.957516 
3777.000000	97.965565 
3776.000000	97.971486 
3775.000000	97.974581 
3774.000000	97.976036 
3773.000000	97.976815 
3772.000000	97.976906 
3771.000000	97.976146 
3770.000000	97.974487 
3769.000000	97.972203 
3768.000000	97.971225 
3767.000000	97.972800 
3766.000000	97.975356 
3765.000000	97.975722 
3764.000000	97.972070 
3763.000000	97.965495 
3762.000000	97.958704 
3761.000000	97.954716 
3760.000000	97.955025 
3759.000000	97.957427 
3758.000000	97.957384 
3757.000000	97.952266 
3756.000000	97.943348 
3755.000000	97.933423 
3754.000000	97.924513 
3753.000000	97.918038 
3752.000000	97.914955 
3751.000000	97.912697 
3750.000000	97.906467 
3749.000000	97.897343 
3748.000000	97.890778 
3747.000000	97.887270 
3746.000000	97.882749 
3745.000000	97.873136 
3744.000000	97.856564 
3743.000000	97.839796 
3742.000000	97.832610 
3741.000000	97.832928 
3740.000000	97.831929 
3739.000000	97.824978 
3738.000000	97.815737 
3737.000000	97.812254 
3736.000000	97.820811 
3735.000000	97.839538 
3734.000000	97.856867 
3733.000000	97.860168 
3732.000000	97.845999 
3731.000000	97.822670 
3730.000000	97.802666 
3729.000000	97.792772 
3728.000000	97.793028 
3727.000000	97.800177 
3726.000000	97.809610 
3725.000000	97.817669 
3724.000000	97.823917 
3723.000000	97.831007 
3722.000000	97.841367 
3721.000000	97.856522 
3720.000000	97.876985 
3719.000000	97.901184 
3718.000000	97.925427 
3717.000000	97.944153 
3716.000000	97.952067 
3715.000000	97.945612 
3714.000000	97.925207 
3713.000000	97.898796 
3712.000000	97.878984 
3711.000000	97.872910 
3710.000000	97.877286 
3709.000000	97.883611 
3708.000000	97.886520 
3707.000000	97.885627 
3706.000000	97.884175 
3705.000000	97.886737 
3704.000000	97.896320 
3703.000000	97.912281 
3702.000000	97.927955 
3701.000000	97.934862 
3700.000000	97.930894 
3699.000000	97.922080 
3698.000000	97.915886 
3697.000000	97.915346 
3696.000000	97.917777 
3695.000000	97.918671 
3694.000000	97.916704 
3693.000000	97.915536 
3692.000000	97.921933 
3691.000000	97.940149 
3690.000000	97.964953 
3689.000000	97.981347 
3688.000000	97.980599 
3687.000000	97.970550 
3686.000000	97.963810 
3685.000000	97.965308 
3684.000000	97.972439 
3683.000000	97.980876 
3682.000000	97.988014 
3681.000000	97.992902 
3680.000000	97.994484 
3679.000000	97.991566 
3678.000000	97.985003 
3677.000000	97.981798 
3676.000000	97.988688 
3675.000000	98.000342 
3674.000000	98.009068 
3673.000000	98.015524 
3672.000000	98.020806 
3671.000000	98.026515 
3670.000000	98.034201 
3669.000000	98.041268 
3668.000000	98.046249 
3667.000000	98.050466 
3666.000000	98.053887 
3665.000000	98.055007 
3664.000000	98.053014 
3663.000000	98.048820 
3662.000000	98.044998 
3661.000000	98.043594 
3660.000000	98.044524 
3659.000000	98.045993 
3658.000000	98.046500 
3657.000000	98.046287 
3656.000000	98.045886 
3655.000000	98.046418 
3654.000000	98.048640 
3653.000000	98.050092 
3652.000000	98.047231 
3651.000000	98.041860 
3650.000000	98.038888 
3649.000000	98.037607 
3648.000000	98.033904 
3647.000000	98.027942 
3646.000000	98.022666 
3645.000000	98.019427 
3644.000000	98.016464 
3643.000000	98.009746 
3642.000000	97.996855 
3641.000000	97.979686 
3640.000000	97.964661 
3639.000000	97.958286 
3638.000000	97.962033 
3637.000000	97.971079 
3636.000000	97.977678 
3635.000000	97.976780 
3634.000000	97.969114 
3633.000000	97.959883 
3632.000000	97.953664 
3631.000000	97.951522 
3630.000000	97.952452 
3629.000000	97.951729 
3628.000000	97.942647 
3627.000000	97.929512 
3626.000000	97.922539 
3625.000000	97.924747 
3624.000000	97.934245 
3623.000000	97.949435 
3622.000000	97.969034 
3621.000000	97.989896 
3620.000000	98.005329 
3619.000000	98.007701 
3618.000000	97.997219 
3617.000000	97.985192 
3616.000000	97.984232 
3615.000000	97.998581 
3614.000000	98.021264 
3613.000000	98.039020 
3612.000000	98.041950 
3611.000000	98.028942 
3610.000000	98.005730 
3609.000000	97.981221 
3608.000000	97.963507 
3607.000000	97.955579 
3606.000000	97.955160 
3605.000000	97.957663 
3604.000000	97.959529 
3603.000000	97.960580 
3602.000000	97.963286 
3601.000000	97.970243 
3600.000000	97.980195 
3599.000000	97.988259 
3598.000000	97.990512 
3597.000000	97.988186 
3596.000000	97.986355 
3595.000000	97.988921 
3594.000000	97.993726 
3593.000000	97.995611 
3592.000000	97.993252 
3591.000000	97.990298 
3590.000000	97.992661 
3589.000000	98.004788 
3588.000000	98.024778 
3587.000000	98.042395 
3586.000000	98.048979 
3585.000000	98.046005 
3584.000000	98.040726 
3583.000000	98.038049 
3582.000000	98.038493 
3581.000000	98.040258 
3580.000000	98.041874 
3579.000000	98.044305 
3578.000000	98.049984 
3577.000000	98.059972 
3576.000000	98.071326 
3575.000000	98.078654 
3574.000000	98.078829 
3573.000000	98.073461 
3572.000000	98.066857 
3571.000000	98.061220 
3570.000000	98.055791 
3569.000000	98.050664 
3568.000000	98.049529 
3567.000000	98.054165 
3566.000000	98.060256 
3565.000000	98.063337 
3564.000000	98.063705 
3563.000000	98.063596 
3562.000000	98.064010 
3561.000000	98.064826 
3560.000000	98.066959 
3559.000000	98.072197 
3558.000000	98.080822 
3557.000000	98.089940 
3556.000000	98.095507 
3555.000000	98.095824 
3554.000000	98.093418 
3553.000000	98.092195 
3552.000000	98.093171 
3551.000000	98.093492 
3550.000000	98.090162 
3549.000000	98.083681 
3548.000000	98.078144 
3547.000000	98.076974 
3546.000000	98.079252 
3545.000000	98.081523 
3544.000000	98.083176 
3543.000000	98.086943 
3542.000000	98.093989 
3541.000000	98.101398 
3540.000000	98.105867 
3539.000000	98.107750 
3538.000000	98.109812 
3537.000000	98.112500 
3536.000000	98.112550 
3535.000000	98.107167 
3534.000000	98.097681 
3533.000000	98.088614 
3532.000000	98.083646 
3531.000000	98.083483 
3530.000000	98.086021 
3529.000000	98.087790 
3528.000000	98.085791 
3527.000000	98.079535 
3526.000000	98.071948 
3525.000000	98.067708 
3524.000000	98.069667 
3523.000000	98.076346 
3522.000000	98.083624 
3521.000000	98.088860 
3520.000000	98.093050 
3519.000000	98.098724 
3518.000000	98.106443 
3517.000000	98.113584 
3516.000000	98.116563 
3515.000000	98.114404 
3514.000000	98.109721 
3513.000000	98.106183 
3512.000000	98.104871 
3511.000000	98.103494 
3510.000000	98.099205 
3509.000000	98.091897 
3508.000000	98.084193 
3507.000000	98.078781 
3506.000000	98.076711 
3505.000000	98.077714 
3504.000000	98.080589 
3503.000000	98.082789 
3502.000000	98.081460 
3501.000000	98.076123 
3500.000000	98.069329 
3499.000000	98.064149 
3498.000000	98.061889 
3497.000000	98.062757 
3496.000000	98.067279 
3495.000000	98.075445 
3494.000000	98.084763 
3493.000000	98.090945 
3492.000000	98.091787 
3491.000000	98.089816 
3490.000000	98.090196 
3489.000000	98.095524 
3488.000000	98.102740 
3487.000000	98.105607 
3486.000000	98.100569 
3485.000000	98.090279 
3484.000000	98.081435 
3483.000000	98.079526 
3482.000000	98.084846 
3481.000000	98.092717 
3480.000000	98.097116 
3479.000000	98.094469 
3478.000000	98.085249 
3477.000000	98.073129 
3476.000000	98.062805 
3475.000000	98.057937 
3474.000000	98.060063 
3473.000000	98.067987 
3472.000000	98.077538 
3471.000000	98.083320 
3470.000000	98.082792 
3469.000000	98.078763 
3468.000000	98.076497 
3467.000000	98.077907 
3466.000000	98.079881 
3465.000000	98.078833 
3464.000000	98.075394 
3463.000000	98.073632 
3462.000000	98.076095 
3461.000000	98.080717 
3460.000000	98.082765 
3459.000000	98.079730 
3458.000000	98.074536 
3457.000000	98.073474 
3456.000000	98.080302 
3455.000000	98.092172 
3454.000000	98.101873 
3453.000000	98.104555 
3452.000000	98.101370 
3451.000000	98.097061 
3450.000000	98.095010 
3449.000000	98.095462 
3448.000000	98.097667 
3447.000000	98.102232 
3446.000000	98.110393 
3445.000000	98.121071 
3444.000000	98.129808 
3443.000000	98.131946 
3442.000000	98.127398 
3441.000000	98.121159 
3440.000000	98.118124 
3439.000000	98.118488 
3438.000000	98.118918 
3437.000000	98.117069 
3436.000000	98.113560 
3435.000000	98.110433 
3434.000000	98.109499 
3433.000000	98.112073 
3432.000000	98.117954 
3431.000000	98.124342 
3430.000000	98.127450 
3429.000000	98.126315 
3428.000000	98.124021 
3427.000000	98.124151 
3426.000000	98.126843 
3425.000000	98.129305 
3424.000000	98.129811 
3423.000000	98.130163 
3422.000000	98.133745 
3421.000000	98.141076 
3420.000000	98.147844 
3419.000000	98.148400 
3418.000000	98.141737 
3417.000000	98.133264 
3416.000000	98.129598 
3415.000000	98.132082 
3414.000000	98.136616 
3413.000000	98.139473 
3412.000000	98.141493 
3411.000000	98.145974 
3410.000000	98.154184 
3409.000000	98.163970 
3408.000000	98.171542 
3407.000000	98.173719 
3406.000000	98.169837 
3405.000000	98.162858 
3404.000000	98.157943 
3403.000000	98.158325 
3402.000000	98.162334 
3401.000000	98.165141 
3400.000000	98.163196 
3399.000000	98.156710 
3398.000000	98.148704 
3397.000000	98.142653 
3396.000000	98.140737 
3395.000000	98.143309 
3394.000000	98.149463 
3393.000000	98.157771 
3392.000000	98.166404 
3391.000000	98.173196 
3390.000000	98.176697 
3389.000000	98.177260 
3388.000000	98.176375 
3387.000000	98.175002 
3386.000000	98.173394 
3385.000000	98.172195 
3384.000000	98.172292 
3383.000000	98.173496 
3382.000000	98.174802 
3381.000000	98.176239 
3380.000000	98.178739 
3379.000000	98.181878 
3378.000000	98.183500 
3377.000000	98.182465 
3376.000000	98.180004 
3375.000000	98.177219 
3374.000000	98.173106 
3373.000000	98.166746 
3372.000000	98.160164 
3371.000000	98.156903 
3370.000000	98.158053 
3369.000000	98.161128 
3368.000000	98.162845 
3367.000000	98.162015 
3366.000000	98.159940 
3365.000000	98.158860 
3364.000000	98.159889 
3363.000000	98.161998 
3362.000000	98.163351 
3361.000000	98.163911 
3360.000000	98.165786 
3359.000000	98.170199 
3358.000000	98.174823 
3357.000000	98.175412 
3356.000000	98.170108 
3355.000000	98.161469 
3354.000000	98.154223 
3353.000000	98.151538 
3352.000000	98.153335 
3351.000000	98.157361 
3350.000000	98.161287 
3349.000000	98.163669 
3348.000000	98.163592 
3347.000000	98.160577 
3346.000000	98.155514 
3345.000000	98.150789 
3344.000000	98.148209 
3343.000000	98.147069 
3342.000000	98.145146 
3341.000000	98.141311 
3340.000000	98.136098 
3339.000000	98.130170 
3338.000000	98.123691 
3337.000000	98.117054 
3336.000000	98.110738 
3335.000000	98.104466 
3334.000000	98.098092 
3333.000000	98.093279 
3332.000000	98.092378 
3331.000000	98.095074 
3330.000000	98.097787 
3329.000000	98.097210 
3328.000000	98.093222 
3327.000000	98.087713 
3326.000000	98.081909 
3325.000000	98.075766 
3324.000000	98.068702 
3323.000000	98.060075 
3322.000000	98.049810 
3321.000000	98.039364 
3320.000000	98.031209 
3319.000000	98.026613 
3318.000000	98.024367 
3317.000000	98.021879 
3316.000000	98.016619 
3315.000000	98.006688 
3314.000000	97.991685 
3313.000000	97.973833 
3312.000000	97.957019 
3311.000000	97.943687 
3310.000000	97.933023 
3309.000000	97.922236 
3308.000000	97.908606 
3307.000000	97.890365 
3306.000000	97.867273 
3305.000000	97.841209 
3304.000000	97.815214 
3303.000000	97.791237 
3302.000000	97.769333 
3301.000000	97.748801 
3300.000000	97.728663 
3299.000000	97.706951 
3298.000000	97.681447 
3297.000000	97.652234 
3296.000000	97.622342 
3295.000000	97.595038 
3294.000000	97.571108 
3293.000000	97.548974 
3292.000000	97.526413 
3291.000000	97.502029 
3290.000000	97.476344 
3289.000000	97.451787 
3288.000000	97.430532 
3287.000000	97.412277 
3286.000000	97.395265 
3285.000000	97.379063 
3284.000000	97.364297 
3283.000000	97.349710 
3282.000000	97.332233 
3281.000000	97.311112 
3280.000000	97.290020 
3279.000000	97.273562 
3278.000000	97.262947 
3277.000000	97.256020 
3276.000000	97.250140 
3275.000000	97.243904 
3274.000000	97.236970 
3273.000000	97.229117 
3272.000000	97.219012 
3271.000000	97.204012 
3270.000000	97.182471 
3269.000000	97.156318 
3268.000000	97.129770 
3267.000000	97.105393 
3266.000000	97.083121 
3265.000000	97.062970 
3264.000000	97.045941 
3263.000000	97.031414 
3262.000000	97.016431 
3261.000000	96.999101 
3260.000000	96.980705 
3259.000000	96.962864 
3258.000000	96.944765 
3257.000000	96.925029 
3256.000000	96.904339 
3255.000000	96.883648 
3254.000000	96.860921 
3253.000000	96.832401 
3252.000000	96.797241 
3251.000000	96.759378 
3250.000000	96.724518 
3249.000000	96.695979 
3248.000000	96.672966 
3247.000000	96.651705 
3246.000000	96.628222 
3245.000000	96.600858 
3244.000000	96.570794 
3243.000000	96.540706 
3242.000000	96.512962 
3241.000000	96.487929 
3240.000000	96.462841 
3239.000000	96.433250 
3238.000000	96.397390 
3237.000000	96.358742 
3236.000000	96.322619 
3235.000000	96.290491 
3234.000000	96.259336 
3233.000000	96.225876 
3232.000000	96.189178 
3231.000000	96.149760 
3230.000000	96.109031 
3229.000000	96.069801 
3228.000000	96.034476 
3227.000000	96.002048 
3226.000000	95.969339 
3225.000000	95.935604 
3224.000000	95.903129 
3223.000000	95.872630 
3222.000000	95.841043 
3221.000000	95.805280 
3220.000000	95.765877 
3219.000000	95.725641 
3218.000000	95.686842 
3217.000000	95.650736 
3216.000000	95.617490 
3215.000000	95.585181 
3214.000000	95.550877 
3213.000000	95.513913 
3212.000000	95.476363 
3211.000000	95.439777 
3210.000000	95.403836 
3209.000000	95.368728 
3208.000000	95.335735 
3207.000000	95.304092 
3206.000000	95.270317 
3205.000000	95.232379 
3204.000000	95.191690 
3203.000000	95.148881 
3202.000000	95.100596 
3201.000000	95.043704 
3200.000000	94.981091 
3199.000000	94.920052 
3198.000000	94.865343 
3197.000000	94.815612 
3196.000000	94.765884 
3195.000000	94.711690 
3194.000000	94.651467 
3193.000000	94.586786 
3192.000000	94.520303 
3191.000000	94.452811 
3190.000000	94.382812 
3189.000000	94.309092 
