PE IR                   SPECTRUM    ASCII       PEDS        1.60        
  -1
~SP.SP
18/04/18
12:30:15.00
18/04/18
12:30:15.00
Claudia

650.000000
16









SPECTRUM 100,CPU32 MAIN 00.02.8200 12-DECEMBER-2006 10:00:00
MIR TGS
MIR
OPTKBR
78890
0.200000

4.000000
STRONG
RATIO
SPECTRUM
MAGNITUDE
UNIVERSAL ATR
DOUBLE

COMBINED


0


#HDR
-1
-1
#GR
CM-1
%T
0.00002384185791015625
0.0
4000.000000
-1.000000
3351
8
98.570984
28.910799
#DATA
4000.000000	98.334007 
3999.000000	98.330237 
3998.000000	98.329317 
3997.000000	98.334368 
3996.000000	98.344301 
3995.000000	98.355201 
3994.000000	98.369354 
3993.000000	98.374262 
3992.000000	98.374752 
3991.000000	98.370468 
3990.000000	98.361804 
3989.000000	98.351028 
3988.000000	98.342030 
3987.000000	98.338154 
3986.000000	98.339581 
3985.000000	98.342838 
3984.000000	98.343719 
3983.000000	98.341123 
3982.000000	98.337608 
3981.000000	98.336302 
3980.000000	98.338040 
3979.000000	98.341817 
3978.000000	98.346830 
3977.000000	98.353005 
3976.000000	98.359933 
3975.000000	98.366219 
3974.000000	98.370057 
3973.000000	98.370322 
3972.000000	98.367506 
3971.000000	98.363890 
3970.000000	98.362218 
3969.000000	98.363580 
3968.000000	98.366932 
3967.000000	98.370845 
3966.000000	98.375097 
3965.000000	98.380158 
3964.000000	98.385750 
3963.000000	98.390724 
3962.000000	98.394226 
3961.000000	98.396499 
3960.000000	98.398622 
3959.000000	98.401834 
3958.000000	98.406656 
3957.000000	98.412191 
3956.000000	98.416626 
3955.000000	98.418777 
3954.000000	98.418934 
3953.000000	98.418088 
3952.000000	98.416933 
3951.000000	98.415878 
3950.000000	98.415235 
3949.000000	98.414940 
3948.000000	98.414579 
3947.000000	98.414156 
3946.000000	98.414458 
3945.000000	98.416386 
3944.000000	98.420022 
3943.000000	98.424344 
3942.000000	98.427995 
3941.000000	98.430333 
3940.000000	98.431625 
3939.000000	98.432573 
3938.000000	98.433590 
3937.000000	98.434167 
3936.000000	98.433382 
3935.000000	98.431230 
3934.000000	98.428987 
3933.000000	98.427709 
3932.000000	98.426935 
3931.000000	98.425615 
3930.000000	98.423806 
3929.000000	98.422557 
3928.000000	98.422475 
3927.000000	98.423070 
3926.000000	98.423255 
3925.000000	98.421694 
3924.000000	98.417287 
3923.000000	98.410420 
3922.000000	98.403232 
3921.000000	98.398065 
3920.000000	98.395384 
3919.000000	98.393267 
3918.000000	98.389342 
3917.000000	98.383416 
3916.000000	98.378129 
3915.000000	98.376901 
3914.000000	98.381203 
3913.000000	98.389308 
3912.000000	98.397260 
3911.000000	98.401806 
3910.000000	98.402749 
3909.000000	98.402940 
3908.000000	98.406131 
3907.000000	98.414457 
3906.000000	98.426461 
3905.000000	98.436720 
3904.000000	98.439102 
3903.000000	98.432819 
3902.000000	98.423969 
3901.000000	98.419970 
3900.000000	98.423735 
3899.000000	98.432907 
3898.000000	98.443427 
3897.000000	98.452552 
3896.000000	98.458933 
3895.000000	98.461834 
3894.000000	98.460901 
3893.000000	98.456363 
3892.000000	98.449504 
3891.000000	98.442961 
3890.000000	98.439464 
3889.000000	98.439363 
3888.000000	98.440871 
3887.000000	98.442929 
3886.000000	98.445765 
3885.000000	98.448613 
3884.000000	98.449439 
3883.000000	98.447484 
3882.000000	98.444828 
3881.000000	98.444971 
3880.000000	98.449633 
3879.000000	98.457154 
3878.000000	98.463844 
3877.000000	98.466542 
3876.000000	98.465635 
3875.000000	98.465138 
3874.000000	98.468207 
3873.000000	98.473233 
3872.000000	98.475979 
3871.000000	98.474662 
3870.000000	98.471867 
3869.000000	98.471323 
3868.000000	98.473669 
3867.000000	98.476687 
3866.000000	98.478980 
3865.000000	98.480766 
3864.000000	98.481166 
3863.000000	98.478128 
3862.000000	98.471177 
3861.000000	98.462689 
3860.000000	98.456763 
3859.000000	98.457264 
3858.000000	98.465420 
3857.000000	98.478364 
3856.000000	98.490175 
3855.000000	98.496505 
3854.000000	98.496263 
3853.000000	98.488680 
3852.000000	98.476275 
3851.000000	98.464380 
3850.000000	98.455355 
3849.000000	98.449638 
3848.000000	98.446970 
3847.000000	98.447234 
3846.000000	98.450764 
3845.000000	98.457599 
3844.000000	98.466890 
3843.000000	98.477597 
3842.000000	98.488789 
3841.000000	98.499447 
3840.000000	98.507886 
3839.000000	98.511714 
3838.000000	98.509349 
3837.000000	98.501875 
3836.000000	98.492346 
3835.000000	98.483503 
3834.000000	98.476568 
3833.000000	98.472118 
3832.000000	98.471069 
3831.000000	98.473809 
3830.000000	98.478538 
3829.000000	98.481494 
3828.000000	98.480358 
3827.000000	98.477608 
3826.000000	98.478436 
3825.000000	98.484589 
3824.000000	98.491906 
3823.000000	98.494998 
3822.000000	98.493103 
3821.000000	98.490042 
3820.000000	98.489732 
3819.000000	98.492692 
3818.000000	98.495434 
3817.000000	98.494997 
3816.000000	98.492517 
3815.000000	98.490682 
3814.000000	98.489895 
3813.000000	98.488722 
3812.000000	98.486394 
3811.000000	98.483215 
3810.000000	98.479158 
3809.000000	98.473722 
3808.000000	98.468025 
3807.000000	98.465709 
3806.000000	98.469625 
3805.000000	98.478301 
3804.000000	98.486597 
3803.000000	98.490182 
3802.000000	98.489054 
3801.000000	98.486650 
3800.000000	98.486105 
3799.000000	98.487311 
3798.000000	98.487710 
3797.000000	98.485432 
3796.000000	98.480843 
3795.000000	98.475890 
3794.000000	98.472507 
3793.000000	98.471896 
3792.000000	98.474570 
3791.000000	98.479863 
3790.000000	98.485423 
3789.000000	98.488227 
3788.000000	98.487005 
3787.000000	98.483771 
3786.000000	98.482549 
3785.000000	98.485581 
3784.000000	98.490682 
3783.000000	98.492701 
3782.000000	98.487931 
3781.000000	98.477541 
3780.000000	98.467107 
3779.000000	98.462306 
3778.000000	98.464798 
3777.000000	98.472163 
3776.000000	98.480690 
3775.000000	98.487955 
3774.000000	98.492942 
3773.000000	98.495215 
3772.000000	98.495164 
3771.000000	98.494387 
3770.000000	98.494030 
3769.000000	98.493361 
3768.000000	98.491422 
3767.000000	98.489123 
3766.000000	98.488919 
3765.000000	98.491855 
3764.000000	98.495445 
3763.000000	98.495895 
3762.000000	98.492472 
3761.000000	98.488556 
3760.000000	98.487078 
3759.000000	98.486349 
3758.000000	98.482984 
3757.000000	98.477515 
3756.000000	98.474205 
3755.000000	98.476833 
3754.000000	98.485738 
3753.000000	98.497629 
3752.000000	98.507275 
3751.000000	98.511021 
3750.000000	98.511122 
3749.000000	98.512955 
3748.000000	98.516030 
3747.000000	98.513165 
3746.000000	98.498582 
3745.000000	98.476342 
3744.000000	98.458506 
3743.000000	98.451580 
3742.000000	98.452043 
3741.000000	98.455258 
3740.000000	98.460038 
3739.000000	98.466079 
3738.000000	98.472255 
3737.000000	98.477443 
3736.000000	98.480945 
3735.000000	98.481690 
3734.000000	98.478522 
3733.000000	98.470910 
3732.000000	98.458790 
3731.000000	98.443239 
3730.000000	98.426948 
3729.000000	98.413776 
3728.000000	98.407842 
3727.000000	98.411118 
3726.000000	98.420390 
3725.000000	98.428974 
3724.000000	98.432899 
3723.000000	98.433665 
3722.000000	98.434937 
3721.000000	98.438945 
3720.000000	98.445792 
3719.000000	98.454735 
3718.000000	98.465193 
3717.000000	98.475718 
3716.000000	98.483508 
3715.000000	98.485984 
3714.000000	98.483425 
3713.000000	98.480065 
3712.000000	98.479314 
3711.000000	98.479516 
3710.000000	98.477116 
3709.000000	98.472222 
3708.000000	98.467600 
3707.000000	98.464776 
3706.000000	98.462949 
3705.000000	98.460640 
3704.000000	98.458724 
3703.000000	98.460456 
3702.000000	98.468384 
3701.000000	98.481055 
3700.000000	98.493960 
3699.000000	98.501994 
3698.000000	98.502623 
3697.000000	98.497577 
3696.000000	98.491719 
3695.000000	98.489950 
3694.000000	98.495190 
3693.000000	98.508758 
3692.000000	98.529700 
3691.000000	98.553208 
3690.000000	98.569640 
3689.000000	98.570984 
3688.000000	98.559266 
3687.000000	98.543920 
3686.000000	98.532021 
3685.000000	98.525445 
3684.000000	98.523142 
3683.000000	98.523200 
3682.000000	98.525165 
3681.000000	98.530153 
3680.000000	98.539033 
3679.000000	98.549534 
3678.000000	98.557503 
3677.000000	98.561780 
3676.000000	98.564832 
3675.000000	98.567386 
3674.000000	98.568175 
3673.000000	98.565723 
3672.000000	98.559559 
3671.000000	98.553833 
3670.000000	98.553298 
3669.000000	98.556668 
3668.000000	98.559701 
3667.000000	98.560089 
3666.000000	98.557727 
3665.000000	98.553986 
3664.000000	98.549951 
3663.000000	98.545415 
3662.000000	98.540105 
3661.000000	98.535432 
3660.000000	98.534000 
3659.000000	98.537134 
3658.000000	98.543631 
3657.000000	98.550866 
3656.000000	98.557008 
3655.000000	98.561691 
3654.000000	98.564105 
3653.000000	98.562462 
3652.000000	98.557069 
3651.000000	98.552497 
3650.000000	98.552920 
3649.000000	98.556026 
3648.000000	98.557535 
3647.000000	98.557221 
3646.000000	98.556198 
3645.000000	98.553688 
3644.000000	98.547818 
3643.000000	98.538090 
3642.000000	98.526500 
3641.000000	98.516018 
3640.000000	98.508615 
3639.000000	98.504632 
3638.000000	98.503234 
3637.000000	98.502989 
3636.000000	98.502818 
3635.000000	98.503006 
3634.000000	98.504642 
3633.000000	98.507481 
3632.000000	98.509299 
3631.000000	98.508126 
3630.000000	98.504807 
3629.000000	98.500691 
3628.000000	98.495285 
3627.000000	98.489383 
3626.000000	98.484235 
3625.000000	98.480446 
3624.000000	98.478920 
3623.000000	98.480543 
3622.000000	98.485903 
3621.000000	98.495468 
3620.000000	98.508223 
3619.000000	98.520736 
3618.000000	98.530242 
3617.000000	98.536664 
3616.000000	98.540271 
3615.000000	98.540720 
3614.000000	98.538177 
3613.000000	98.533743 
3612.000000	98.528389 
3611.000000	98.522049 
3610.000000	98.514618 
3609.000000	98.508258 
3608.000000	98.505883 
3607.000000	98.507220 
3606.000000	98.508705 
3605.000000	98.506892 
3604.000000	98.501662 
3603.000000	98.496370 
3602.000000	98.495821 
3601.000000	98.503046 
3600.000000	98.516732 
3599.000000	98.531520 
3598.000000	98.541365 
3597.000000	98.543253 
3596.000000	98.538376 
3595.000000	98.530584 
3594.000000	98.522932 
3593.000000	98.516728 
3592.000000	98.512770 
3591.000000	98.512957 
3590.000000	98.520002 
3589.000000	98.534943 
3588.000000	98.552865 
3587.000000	98.564666 
3586.000000	98.566225 
3585.000000	98.560842 
3584.000000	98.553111 
3583.000000	98.545056 
3582.000000	98.537776 
3581.000000	98.532873 
3580.000000	98.531398 
3579.000000	98.532279 
3578.000000	98.533599 
3577.000000	98.535396 
3576.000000	98.539010 
3575.000000	98.543814 
3574.000000	98.546067 
3573.000000	98.542992 
3572.000000	98.536431 
3571.000000	98.531612 
3570.000000	98.532537 
3569.000000	98.539445 
3568.000000	98.548817 
3567.000000	98.555710 
3566.000000	98.557961 
3565.000000	98.557237 
3564.000000	98.554707 
3563.000000	98.549172 
3562.000000	98.540179 
3561.000000	98.531099 
3560.000000	98.527642 
3559.000000	98.532398 
3558.000000	98.541796 
3557.000000	98.549209 
3556.000000	98.550591 
3555.000000	98.546717 
3554.000000	98.541230 
3553.000000	98.537459 
3552.000000	98.536965 
3551.000000	98.539607 
3550.000000	98.543817 
3549.000000	98.547032 
3548.000000	98.546867 
3547.000000	98.542590 
3546.000000	98.536288 
3545.000000	98.532313 
3544.000000	98.534021 
3543.000000	98.540156 
3542.000000	98.544953 
3541.000000	98.543074 
3540.000000	98.534814 
3539.000000	98.526080 
3538.000000	98.522724 
3537.000000	98.524976 
3536.000000	98.527652 
3535.000000	98.525949 
3534.000000	98.520274 
3533.000000	98.515525 
3532.000000	98.516180 
3531.000000	98.522265 
3530.000000	98.529303 
3529.000000	98.531942 
3528.000000	98.527783 
3527.000000	98.518454 
3526.000000	98.507984 
3525.000000	98.500600 
3524.000000	98.499111 
3523.000000	98.503775 
3522.000000	98.512255 
3521.000000	98.520946 
3520.000000	98.526828 
3519.000000	98.528641 
3518.000000	98.527019 
3517.000000	98.523878 
3516.000000	98.521557 
3515.000000	98.522211 
3514.000000	98.527000 
3513.000000	98.534974 
3512.000000	98.542634 
3511.000000	98.545511 
3510.000000	98.541378 
3509.000000	98.532182 
3508.000000	98.522450 
3507.000000	98.515885 
3506.000000	98.513707 
3505.000000	98.515055 
3504.000000	98.517681 
3503.000000	98.518918 
3502.000000	98.517546 
3501.000000	98.514589 
3500.000000	98.511425 
3499.000000	98.507778 
3498.000000	98.502680 
3497.000000	98.497063 
3496.000000	98.493955 
3495.000000	98.495564 
3494.000000	98.501027 
3493.000000	98.507323 
3492.000000	98.511823 
3491.000000	98.513745 
3490.000000	98.514084 
3489.000000	98.514679 
3488.000000	98.516864 
3487.000000	98.520677 
3486.000000	98.525411 
3485.000000	98.530504 
3484.000000	98.535276 
3483.000000	98.538476 
3482.000000	98.539322 
3481.000000	98.538866 
3480.000000	98.538876 
3479.000000	98.539093 
3478.000000	98.536911 
3477.000000	98.530397 
3476.000000	98.520777 
3475.000000	98.511618 
3474.000000	98.506091 
3473.000000	98.505159 
3472.000000	98.507529 
3471.000000	98.510784 
3470.000000	98.512945 
3469.000000	98.513287 
3468.000000	98.511820 
3467.000000	98.508793 
3466.000000	98.505455 
3465.000000	98.504448 
3464.000000	98.507860 
3463.000000	98.514797 
3462.000000	98.521917 
3461.000000	98.526407 
3460.000000	98.527546 
3459.000000	98.526203 
3458.000000	98.524534 
3457.000000	98.525618 
3456.000000	98.531013 
3455.000000	98.538183 
3454.000000	98.542427 
3453.000000	98.542346 
3452.000000	98.541425 
3451.000000	98.543290 
3450.000000	98.546866 
3449.000000	98.547755 
3448.000000	98.543664 
3447.000000	98.537297 
3446.000000	98.533951 
3445.000000	98.536676 
3444.000000	98.543609 
3443.000000	98.549479 
3442.000000	98.549853 
3441.000000	98.544268 
3440.000000	98.535351 
3439.000000	98.525960 
3438.000000	98.518084 
3437.000000	98.513223 
3436.000000	98.511668 
3435.000000	98.511579 
3434.000000	98.510805 
3433.000000	98.509823 
3432.000000	98.510813 
3431.000000	98.513589 
3430.000000	98.514844 
3429.000000	98.512351 
3428.000000	98.507713 
3427.000000	98.503483 
3426.000000	98.499526 
3425.000000	98.494287 
3424.000000	98.488547 
3423.000000	98.485784 
3422.000000	98.488459 
3421.000000	98.494767 
3420.000000	98.499487 
3419.000000	98.498332 
3418.000000	98.492145 
3417.000000	98.486731 
3416.000000	98.487357 
3415.000000	98.493216 
3414.000000	98.498516 
3413.000000	98.499205 
3412.000000	98.496776 
3411.000000	98.494726 
3410.000000	98.493733 
3409.000000	98.492230 
3408.000000	98.490123 
3407.000000	98.489467 
3406.000000	98.491785 
3405.000000	98.496487 
3404.000000	98.501917 
3403.000000	98.506624 
3402.000000	98.509488 
3401.000000	98.509745 
3400.000000	98.507279 
3399.000000	98.502593 
3398.000000	98.496486 
3397.000000	98.489924 
3396.000000	98.484018 
3395.000000	98.479839 
3394.000000	98.478273 
3393.000000	98.479582 
3392.000000	98.482434 
3391.000000	98.483779 
3390.000000	98.480997 
3389.000000	98.474563 
3388.000000	98.468036 
3387.000000	98.465454 
3386.000000	98.469089 
3385.000000	98.478492 
3384.000000	98.489844 
3383.000000	98.496621 
3382.000000	98.493689 
3381.000000	98.482099 
3380.000000	98.468668 
3379.000000	98.460127 
3378.000000	98.458376 
3377.000000	98.461189 
3376.000000	98.465159 
3375.000000	98.466998 
3374.000000	98.464390 
3373.000000	98.457964 
3372.000000	98.451769 
3371.000000	98.449987 
3370.000000	98.452974 
3369.000000	98.457003 
3368.000000	98.457562 
3367.000000	98.452807 
3366.000000	98.444919 
3365.000000	98.438712 
3364.000000	98.437875 
3363.000000	98.441728 
3362.000000	98.446045 
3361.000000	98.447226 
3360.000000	98.444785 
3359.000000	98.439957 
3358.000000	98.433655 
3357.000000	98.426709 
3356.000000	98.420703 
3355.000000	98.417216 
3354.000000	98.416642 
3353.000000	98.418256 
3352.000000	98.420633 
3351.000000	98.421597 
3350.000000	98.418922 
3349.000000	98.412048 
3348.000000	98.402825 
3347.000000	98.394224 
3346.000000	98.388631 
3345.000000	98.387001 
3344.000000	98.388305 
3343.000000	98.389585 
3342.000000	98.387714 
3341.000000	98.381560 
3340.000000	98.371954 
3339.000000	98.359996 
3338.000000	98.346655 
3337.000000	98.333542 
3336.000000	98.322197 
3335.000000	98.312579 
3334.000000	98.304066 
3333.000000	98.297899 
3332.000000	98.296453 
3331.000000	98.299554 
3330.000000	98.303431 
3329.000000	98.304009 
3328.000000	98.299752 
3327.000000	98.291189 
3326.000000	98.279982 
3325.000000	98.269115 
3324.000000	98.261371 
3323.000000	98.255986 
3322.000000	98.248582 
3321.000000	98.236113 
3320.000000	98.220676 
3319.000000	98.207144 
3318.000000	98.197875 
3317.000000	98.190588 
3316.000000	98.180350 
3315.000000	98.163040 
3314.000000	98.138386 
3313.000000	98.110697 
3312.000000	98.085685 
3311.000000	98.065922 
3310.000000	98.050095 
3309.000000	98.036177 
3308.000000	98.022928 
3307.000000	98.007913 
3306.000000	97.986999 
3305.000000	97.957825 
3304.000000	97.922359 
3303.000000	97.884746 
3302.000000	97.847986 
3301.000000	97.813552 
3300.000000	97.781993 
3299.000000	97.751940 
3298.000000	97.720066 
3297.000000	97.684395 
3296.000000	97.647166 
3295.000000	97.612890 
3294.000000	97.583841 
3293.000000	97.558377 
3292.000000	97.532989 
3291.000000	97.505152 
3290.000000	97.474803 
3289.000000	97.443972 
3288.000000	97.414748 
3287.000000	97.387545 
3286.000000	97.361925 
3285.000000	97.338486 
3284.000000	97.317921 
3283.000000	97.298188 
3282.000000	97.275306 
3281.000000	97.248385 
3280.000000	97.222159 
3279.000000	97.202851 
3278.000000	97.192473 
3277.000000	97.187942 
3276.000000	97.184227 
3275.000000	97.176979 
3274.000000	97.163300 
3273.000000	97.141982 
3272.000000	97.113531 
3271.000000	97.079910 
3270.000000	97.044478 
3269.000000	97.011332 
3268.000000	96.982874 
3267.000000	96.957865 
3266.000000	96.933478 
3265.000000	96.909171 
3264.000000	96.886568 
3263.000000	96.865597 
3262.000000	96.843684 
3261.000000	96.819614 
3260.000000	96.795323 
3259.000000	96.772201 
3258.000000	96.748070 
3257.000000	96.719990 
3256.000000	96.688272 
3255.000000	96.655474 
3254.000000	96.622882 
3253.000000	96.590276 
3252.000000	96.558068 
3251.000000	96.527048 
3250.000000	96.495975 
3249.000000	96.461649 
3248.000000	96.422249 
3247.000000	96.379791 
3246.000000	96.338683 
3245.000000	96.301903 
3244.000000	96.268571 
3243.000000	96.235204 
3242.000000	96.199168 
3241.000000	96.160417 
3240.000000	96.120028 
3239.000000	96.078501 
3238.000000	96.036541 
3237.000000	95.996101 
3236.000000	95.958668 
3235.000000	95.923100 
3234.000000	95.886905 
3233.000000	95.848841 
3232.000000	95.808346 
3231.000000	95.763663 
3230.000000	95.713616 
3229.000000	95.660945 
3228.000000	95.610735 
3227.000000	95.565136 
3226.000000	95.522256 
3225.000000	95.480222 
3224.000000	95.439008 
3223.000000	95.397734 
3222.000000	95.353789 
3221.000000	95.306358 
3220.000000	95.258353 
3219.000000	95.213142 
3218.000000	95.171198 
3217.000000	95.130876 
3216.000000	95.090393 
3215.000000	95.048143 
3214.000000	95.003356 
3213.000000	94.957460 
3212.000000	94.912849 
3211.000000	94.869669 
3210.000000	94.825939 
3209.000000	94.781089 
3208.000000	94.736516 
3207.000000	94.692025 
3206.000000	94.644957 
3205.000000	94.593957 
3204.000000	94.540372 
3203.000000	94.484549 
3202.000000	94.424293 
3201.000000	94.359349 
3200.000000	94.294374 
3199.000000	94.234252 
3198.000000	94.177991 
3197.000000	94.119495 
3196.000000	94.053001 
3195.000000	93.976244 
3194.000000	93.890642 
3193.000000	93.800964 
3192.000000	93.713149 
3191.000000	93.629738 
3190.000000	93.547883 
3189.000000	93.463099 
