PE IR                   SPECTRUM    ASCII       PEDS        1.60        
  -1
~SP.SP
18/03/23
17:16:51.00
18/03/23
17:16:51.00
pili
Irradiada
650.000000
4









SPECTRUM 100,CPU32 MAIN 00.02.8200 12-DECEMBER-2006 10:00:00
MIR TGS
MIR
OPTKBR
78890
0.200000

4.000000
STRONG
RATIO
SPECTRUM
MAGNITUDE
UNIVERSAL ATR
DOUBLE

COMBINED


0


#HDR
-1
-1
#GR
CM-1
%T
0.00002384185791015625
0.0
4000.000000
-1.000000
3351
8
100.631410
48.279711
#DATA
4000.000000	98.567855  
3999.000000	98.562149  
3998.000000	98.553398  
3997.000000	98.548684  
3996.000000	98.550744  
3995.000000	98.558951  
3994.000000	98.571426  
3993.000000	98.585730  
3992.000000	98.598255  
3991.000000	98.605004  
3990.000000	98.604000  
3989.000000	98.596343  
3988.000000	98.584483  
3987.000000	98.570302  
3986.000000	98.555544  
3985.000000	98.543045  
3984.000000	98.535728  
3983.000000	98.533799  
3982.000000	98.533880  
3981.000000	98.531805  
3980.000000	98.526472  
3979.000000	98.520790  
3978.000000	98.518998  
3977.000000	98.523054  
3976.000000	98.531138  
3975.000000	98.539098  
3974.000000	98.543201  
3973.000000	98.542040  
3972.000000	98.536725  
3971.000000	98.530134  
3970.000000	98.525736  
3969.000000	98.526165  
3968.000000	98.532025  
3967.000000	98.541908  
3966.000000	98.553419  
3965.000000	98.563850  
3964.000000	98.570118  
3963.000000	98.569456  
3962.000000	98.561722  
3961.000000	98.550995  
3960.000000	98.543497  
3959.000000	98.543088  
3958.000000	98.548336  
3957.000000	98.554351  
3956.000000	98.557496  
3955.000000	98.558701  
3954.000000	98.562226  
3953.000000	98.571026  
3952.000000	98.583539  
3951.000000	98.594810  
3950.000000	98.600624  
3949.000000	98.600572  
3948.000000	98.597697  
3947.000000	98.595819  
3946.000000	98.597068  
3945.000000	98.600869  
3944.000000	98.604872  
3943.000000	98.607432  
3942.000000	98.609200  
3941.000000	98.611376  
3940.000000	98.612861  
3939.000000	98.610740  
3938.000000	98.603760  
3937.000000	98.594561  
3936.000000	98.587132  
3935.000000	98.582323  
3934.000000	98.577260  
3933.000000	98.569388  
3932.000000	98.560356  
3931.000000	98.554372  
3930.000000	98.553557  
3929.000000	98.556628  
3928.000000	98.561131  
3927.000000	98.565466  
3926.000000	98.569252  
3925.000000	98.573354  
3924.000000	98.578864  
3923.000000	98.584997  
3922.000000	98.589258  
3921.000000	98.591067  
3920.000000	98.593685  
3919.000000	98.600662  
3918.000000	98.609965  
3917.000000	98.614313  
3916.000000	98.608331  
3915.000000	98.593888  
3914.000000	98.577620  
3913.000000	98.565706  
3912.000000	98.560295  
3911.000000	98.559891  
3910.000000	98.561410  
3909.000000	98.563143  
3908.000000	98.565588  
3907.000000	98.569693  
3906.000000	98.574312  
3905.000000	98.576618  
3904.000000	98.576506  
3903.000000	98.578296  
3902.000000	98.585484  
3901.000000	98.595145  
3900.000000	98.600216  
3899.000000	98.597081  
3898.000000	98.588673  
3897.000000	98.580556  
3896.000000	98.576252  
3895.000000	98.576688  
3894.000000	98.580346  
3893.000000	98.583868  
3892.000000	98.584268  
3891.000000	98.583720  
3890.000000	98.587747  
3889.000000	98.597955  
3888.000000	98.607747  
3887.000000	98.605685  
3886.000000	98.587616  
3885.000000	98.565267  
3884.000000	98.554964  
3883.000000	98.561649  
3882.000000	98.576437  
3881.000000	98.585715  
3880.000000	98.583434  
3879.000000	98.575122  
3878.000000	98.570295  
3877.000000	98.574462  
3876.000000	98.585678  
3875.000000	98.596973  
3874.000000	98.604427  
3873.000000	98.611246  
3872.000000	98.620811  
3871.000000	98.628753  
3870.000000	98.627302  
3869.000000	98.616204  
3868.000000	98.602188  
3867.000000	98.591119  
3866.000000	98.584638  
3865.000000	98.581531  
3864.000000	98.578817  
3863.000000	98.574290  
3862.000000	98.570163  
3861.000000	98.572928  
3860.000000	98.585007  
3859.000000	98.600144  
3858.000000	98.608273  
3857.000000	98.605185  
3856.000000	98.595929  
3855.000000	98.588058  
3854.000000	98.582317  
3853.000000	98.576877  
3852.000000	98.571501  
3851.000000	98.566124  
3850.000000	98.562617  
3849.000000	98.565123  
3848.000000	98.576247  
3847.000000	98.593151  
3846.000000	98.608380  
3845.000000	98.615509  
3844.000000	98.613642  
3843.000000	98.607960  
3842.000000	98.604433  
3841.000000	98.604502  
3840.000000	98.604704  
3839.000000	98.602312  
3838.000000	98.599073  
3837.000000	98.599022  
3836.000000	98.603819  
3835.000000	98.611180  
3834.000000	98.615891  
3833.000000	98.613142  
3832.000000	98.603439  
3831.000000	98.593578  
3830.000000	98.590328  
3829.000000	98.594106  
3828.000000	98.598423  
3827.000000	98.596438  
3826.000000	98.587861  
3825.000000	98.578640  
3824.000000	98.574406  
3823.000000	98.575652  
3822.000000	98.577305  
3821.000000	98.576331  
3820.000000	98.575850  
3819.000000	98.578409  
3818.000000	98.583106  
3817.000000	98.587709  
3816.000000	98.593126  
3815.000000	98.602228  
3814.000000	98.612930  
3813.000000	98.618520  
3812.000000	98.614548  
3811.000000	98.602571  
3810.000000	98.588339  
3809.000000	98.576994  
3808.000000	98.570460  
3807.000000	98.570514  
3806.000000	98.580110  
3805.000000	98.599833  
3804.000000	98.624913  
3803.000000	98.644720  
3802.000000	98.648486  
3801.000000	98.638532  
3800.000000	98.627745  
3799.000000	98.624483  
3798.000000	98.628008  
3797.000000	98.632481  
3796.000000	98.633128  
3795.000000	98.629281  
3794.000000	98.623565  
3793.000000	98.619445  
3792.000000	98.619532  
3791.000000	98.623932  
3790.000000	98.630532  
3789.000000	98.637654  
3788.000000	98.645641  
3787.000000	98.654309  
3786.000000	98.659800  
3785.000000	98.657024  
3784.000000	98.646183  
3783.000000	98.634476  
3782.000000	98.629917  
3781.000000	98.634294  
3780.000000	98.641580  
3779.000000	98.644182  
3778.000000	98.639126  
3777.000000	98.627553  
3776.000000	98.610778  
3775.000000	98.589872  
3774.000000	98.567645  
3773.000000	98.548572  
3772.000000	98.536024  
3771.000000	98.531346  
3770.000000	98.535770  
3769.000000	98.550786  
3768.000000	98.575142  
3767.000000	98.602700  
3766.000000	98.623968  
3765.000000	98.631318  
3764.000000	98.623697  
3763.000000	98.606620  
3762.000000	98.589560  
3761.000000	98.583910  
3760.000000	98.596427  
3759.000000	98.620585  
3758.000000	98.638817  
3757.000000	98.638982  
3756.000000	98.624311  
3755.000000	98.606324  
3754.000000	98.592866  
3753.000000	98.584045  
3752.000000	98.577148  
3751.000000	98.572273  
3750.000000	98.571727  
3749.000000	98.576362  
3748.000000	98.586293  
3747.000000	98.600700  
3746.000000	98.613953  
3745.000000	98.617910  
3744.000000	98.614209  
3743.000000	98.609585  
3742.000000	98.603416  
3741.000000	98.592943  
3740.000000	98.580789  
3739.000000	98.573363  
3738.000000	98.572018  
3737.000000	98.570524  
3736.000000	98.566190  
3735.000000	98.567233  
3734.000000	98.580804  
3733.000000	98.600650  
3732.000000	98.614290  
3731.000000	98.615539  
3730.000000	98.607345  
3729.000000	98.596405  
3728.000000	98.588299  
3727.000000	98.585830  
3726.000000	98.588109  
3725.000000	98.590115  
3724.000000	98.587610  
3723.000000	98.583177  
3722.000000	98.583792  
3721.000000	98.592478  
3720.000000	98.604724  
3719.000000	98.613878  
3718.000000	98.617643  
3717.000000	98.619339  
3716.000000	98.623165  
3715.000000	98.629212  
3714.000000	98.633569  
3713.000000	98.632683  
3712.000000	98.627351  
3711.000000	98.622181  
3710.000000	98.620216  
3709.000000	98.620585  
3708.000000	98.621594  
3707.000000	98.623389  
3706.000000	98.626956  
3705.000000	98.631147  
3704.000000	98.632263  
3703.000000	98.627328  
3702.000000	98.618328  
3701.000000	98.612135  
3700.000000	98.614922  
3699.000000	98.627091  
3698.000000	98.643057  
3697.000000	98.655183  
3696.000000	98.658471  
3695.000000	98.652404  
3694.000000	98.640681  
3693.000000	98.631259  
3692.000000	98.633792  
3691.000000	98.651987  
3690.000000	98.675889  
3689.000000	98.688190  
3688.000000	98.682337  
3687.000000	98.668929  
3686.000000	98.662600  
3685.000000	98.667959  
3684.000000	98.678973  
3683.000000	98.687517  
3682.000000	98.689871  
3681.000000	98.685383  
3680.000000	98.674655  
3679.000000	98.660478  
3678.000000	98.647577  
3677.000000	98.637501  
3676.000000	98.627783  
3675.000000	98.620422  
3674.000000	98.620986  
3673.000000	98.631802  
3672.000000	98.650811  
3671.000000	98.671880  
3670.000000	98.688351  
3669.000000	98.697508  
3668.000000	98.699206  
3667.000000	98.695292  
3666.000000	98.690936  
3665.000000	98.692547  
3664.000000	98.702088  
3663.000000	98.714082  
3662.000000	98.720605  
3661.000000	98.719762  
3660.000000	98.717418  
3659.000000	98.718962  
3658.000000	98.721662  
3657.000000	98.717034  
3656.000000	98.703256  
3655.000000	98.689019  
3654.000000	98.683919  
3653.000000	98.691093  
3652.000000	98.707637  
3651.000000	98.727267  
3650.000000	98.743835  
3649.000000	98.755323  
3648.000000	98.762798  
3647.000000	98.766801  
3646.000000	98.767240  
3645.000000	98.765645  
3644.000000	98.765080  
3643.000000	98.767485  
3642.000000	98.771013  
3641.000000	98.771155  
3640.000000	98.765103  
3639.000000	98.755062  
3638.000000	98.746868  
3637.000000	98.744267  
3636.000000	98.744863  
3635.000000	98.742500  
3634.000000	98.734786  
3633.000000	98.726916  
3632.000000	98.727502  
3631.000000	98.741298  
3630.000000	98.763959  
3629.000000	98.786515  
3628.000000	98.804429  
3627.000000	98.815610  
3626.000000	98.816930  
3625.000000	98.806874  
3624.000000	98.788640  
3623.000000	98.770498  
3622.000000	98.762079  
3621.000000	98.768909  
3620.000000	98.788466  
3619.000000	98.811409  
3618.000000	98.827955  
3617.000000	98.833352  
3616.000000	98.827844  
3615.000000	98.814288  
3614.000000	98.798569  
3613.000000	98.790503  
3612.000000	98.798893  
3611.000000	98.823766  
3610.000000	98.854730  
3609.000000	98.877893  
3608.000000	98.886312  
3607.000000	98.884330  
3606.000000	98.882186  
3605.000000	98.888549  
3604.000000	98.906553  
3603.000000	98.931540  
3602.000000	98.952390  
3601.000000	98.958807  
3600.000000	98.950114  
3599.000000	98.934731  
3598.000000	98.922435  
3597.000000	98.918134  
3596.000000	98.921731  
3595.000000	98.930350  
3594.000000	98.941067  
3593.000000	98.952301  
3592.000000	98.964242  
3591.000000	98.977303  
3590.000000	98.989139  
3589.000000	98.993884  
3588.000000	98.988062  
3587.000000	98.977802  
3586.000000	98.974451  
3585.000000	98.983743  
3584.000000	99.002776  
3583.000000	99.023456  
3582.000000	99.037034  
3581.000000	99.038173  
3580.000000	99.028206  
3579.000000	99.014435  
3578.000000	99.005154  
3577.000000	99.004223  
3576.000000	99.009046  
3575.000000	99.013257  
3574.000000	99.011503  
3573.000000	99.003762  
3572.000000	98.996386  
3571.000000	98.999112  
3570.000000	99.018564  
3569.000000	99.052075  
3568.000000	99.087607  
3567.000000	99.113713  
3566.000000	99.129345  
3565.000000	99.141266  
3564.000000	99.154909  
3563.000000	99.169657  
3562.000000	99.180195  
3561.000000	99.181659  
3560.000000	99.174985  
3559.000000	99.167550  
3558.000000	99.167514  
3557.000000	99.177607  
3556.000000	99.194492  
3555.000000	99.213221  
3554.000000	99.230797  
3553.000000	99.246026  
3552.000000	99.258403  
3551.000000	99.268383  
3550.000000	99.277298  
3549.000000	99.285173  
3548.000000	99.289271  
3547.000000	99.287279  
3546.000000	99.282580  
3545.000000	99.283240  
3544.000000	99.293395  
3543.000000	99.307989  
3542.000000	99.318039  
3541.000000	99.320559  
3540.000000	99.321914  
3539.000000	99.331639  
3538.000000	99.353539  
3537.000000	99.382302  
3536.000000	99.407343  
3535.000000	99.419727  
3534.000000	99.417529  
3533.000000	99.406643  
3532.000000	99.396588  
3531.000000	99.393588  
3530.000000	99.396255  
3529.000000	99.398542  
3528.000000	99.397489  
3527.000000	99.396934  
3526.000000	99.402729  
3525.000000	99.415771  
3524.000000	99.431329  
3523.000000	99.444995  
3522.000000	99.457084  
3521.000000	99.469851  
3520.000000	99.482116  
3519.000000	99.489586  
3518.000000	99.491210  
3517.000000	99.492580  
3516.000000	99.500733  
3515.000000	99.516752  
3514.000000	99.535578  
3513.000000	99.551994  
3512.000000	99.564022  
3511.000000	99.570848  
3510.000000	99.571180  
3509.000000	99.565654  
3508.000000	99.558631  
3507.000000	99.555135  
3506.000000	99.556689  
3505.000000	99.561067  
3504.000000	99.565377  
3503.000000	99.568663  
3502.000000	99.572223  
3501.000000	99.578052  
3500.000000	99.586173  
3499.000000	99.593014  
3498.000000	99.594136  
3497.000000	99.590066  
3496.000000	99.587485  
3495.000000	99.591896  
3494.000000	99.600358  
3493.000000	99.604192  
3492.000000	99.598450  
3491.000000	99.586215  
3490.000000	99.574428  
3489.000000	99.568128  
3488.000000	99.568755  
3487.000000	99.574702  
3486.000000	99.582137  
3485.000000	99.587795  
3484.000000	99.592549  
3483.000000	99.600400  
3482.000000	99.612286  
3481.000000	99.622821  
3480.000000	99.625755  
3479.000000	99.621293  
3478.000000	99.615310  
3477.000000	99.611815  
3476.000000	99.608964  
3475.000000	99.603325  
3474.000000	99.596477  
3473.000000	99.595429  
3472.000000	99.606151  
3471.000000	99.626946  
3470.000000	99.648443  
3469.000000	99.661041  
3468.000000	99.663556  
3467.000000	99.665024  
3466.000000	99.676696  
3465.000000	99.701197  
3464.000000	99.729447  
3463.000000	99.748517  
3462.000000	99.753331  
3461.000000	99.750784  
3460.000000	99.752273  
3459.000000	99.762114  
3458.000000	99.773526  
3457.000000	99.776371  
3456.000000	99.768490  
3455.000000	99.758364  
3454.000000	99.756183  
3453.000000	99.763337  
3452.000000	99.771881  
3451.000000	99.773001  
3450.000000	99.764647  
3449.000000	99.752132  
3448.000000	99.743843  
3447.000000	99.745968  
3446.000000	99.757871  
3445.000000	99.771187  
3444.000000	99.775244  
3443.000000	99.765246  
3442.000000	99.745496  
3441.000000	99.724680  
3440.000000	99.709490  
3439.000000	99.703372  
3438.000000	99.707781  
3437.000000	99.720595  
3436.000000	99.734446  
3435.000000	99.740995  
3434.000000	99.738137  
3433.000000	99.730931  
3432.000000	99.725016  
3431.000000	99.721497  
3430.000000	99.718794  
3429.000000	99.716049  
3428.000000	99.712407  
3427.000000	99.705657  
3426.000000	99.695177  
3425.000000	99.685351  
3424.000000	99.682783  
3423.000000	99.689576  
3422.000000	99.701153  
3421.000000	99.710910  
3420.000000	99.715242  
3419.000000	99.714183  
3418.000000	99.709603  
3417.000000	99.703515  
3416.000000	99.696146  
3415.000000	99.685025  
3414.000000	99.668242  
3413.000000	99.649705  
3412.000000	99.638568  
3411.000000	99.640820  
3410.000000	99.652633  
3409.000000	99.664305  
3408.000000	99.670095  
3407.000000	99.672037  
3406.000000	99.674203  
3405.000000	99.675974  
3404.000000	99.672482  
3403.000000	99.660378  
3402.000000	99.641741  
3401.000000	99.622349  
3400.000000	99.606926  
3399.000000	99.596135  
3398.000000	99.587196  
3397.000000	99.576698  
3396.000000	99.563154  
3395.000000	99.548196  
3394.000000	99.536286  
3393.000000	99.532809  
3392.000000	99.540852  
3391.000000	99.558558  
3390.000000	99.579097  
3389.000000	99.593297  
3388.000000	99.594009  
3387.000000	99.580888  
3386.000000	99.562583  
3385.000000	99.551990  
3384.000000	99.555806  
3383.000000	99.567911  
3382.000000	99.574754  
3381.000000	99.567899  
3380.000000	99.550720  
3379.000000	99.533921  
3378.000000	99.526361  
3377.000000	99.529748  
3376.000000	99.538916  
3375.000000	99.545579  
3374.000000	99.543771  
3373.000000	99.534040  
3372.000000	99.522522  
3371.000000	99.515456  
3370.000000	99.514986  
3369.000000	99.519663  
3368.000000	99.526774  
3367.000000	99.533265  
3366.000000	99.536307  
3365.000000	99.534858  
3364.000000	99.530399  
3363.000000	99.525837  
3362.000000	99.524612  
3361.000000	99.530140  
3360.000000	99.542781  
3359.000000	99.555984  
3358.000000	99.558942  
3357.000000	99.546787  
3356.000000	99.526605  
3355.000000	99.509578  
3354.000000	99.497677  
3353.000000	99.482661  
3352.000000	99.459227  
3351.000000	99.435403  
3350.000000	99.426719  
3349.000000	99.440707  
3348.000000	99.468572  
3347.000000	99.491502  
3346.000000	99.494903  
3345.000000	99.478564  
3344.000000	99.455856  
3343.000000	99.442845  
3342.000000	99.445342  
3341.000000	99.454512  
3340.000000	99.455305  
3339.000000	99.440373  
3338.000000	99.415940  
3337.000000	99.394235  
3336.000000	99.381720  
3335.000000	99.376032  
3334.000000	99.372727  
3333.000000	99.370554  
3332.000000	99.368525  
3331.000000	99.361870  
3330.000000	99.346183  
3329.000000	99.325469  
3328.000000	99.311375  
3327.000000	99.311779  
3326.000000	99.322447  
3325.000000	99.332073  
3324.000000	99.333294  
3323.000000	99.326162  
3322.000000	99.312970  
3321.000000	99.294582  
3320.000000	99.272831  
3319.000000	99.252522  
3318.000000	99.237708  
3317.000000	99.227086  
3316.000000	99.216023  
3315.000000	99.203379  
3314.000000	99.193855  
3313.000000	99.191760  
3312.000000	99.193622  
3311.000000	99.189219  
3310.000000	99.170707  
3309.000000	99.139872  
3308.000000	99.105885  
3307.000000	99.076696  
3306.000000	99.052941  
3305.000000	99.029185  
3304.000000	99.000382  
3303.000000	98.968010  
3302.000000	98.940500  
3301.000000	98.925978  
3300.000000	98.922927  
3299.000000	98.919128  
3298.000000	98.901929  
3297.000000	98.869345  
3296.000000	98.829856  
3295.000000	98.792675  
3294.000000	98.761125  
3293.000000	98.734595  
3292.000000	98.712459  
3291.000000	98.693967  
3290.000000	98.676864  
3289.000000	98.658948  
3288.000000	98.640427  
3287.000000	98.623175  
3286.000000	98.607830  
3285.000000	98.592373  
3284.000000	98.573366  
3283.000000	98.548861  
3282.000000	98.521166  
3281.000000	98.496432  
3280.000000	98.479609  
3279.000000	98.469411  
3278.000000	98.460085  
3277.000000	98.448664  
3276.000000	98.438383  
3275.000000	98.433664  
3274.000000	98.433346  
3273.000000	98.430316  
3272.000000	98.416746  
3271.000000	98.389171  
3270.000000	98.350792  
3269.000000	98.310776  
3268.000000	98.279476  
3267.000000	98.260987  
3266.000000	98.249568  
3265.000000	98.234646  
3264.000000	98.210217  
3263.000000	98.179921  
3262.000000	98.153945  
3261.000000	98.140888  
3260.000000	98.140367  
3259.000000	98.141711  
3258.000000	98.130837  
3257.000000	98.100668  
3256.000000	98.056085  
3255.000000	98.009106  
3254.000000	97.969594  
3253.000000	97.939787  
3252.000000	97.915553  
3251.000000	97.891277  
3250.000000	97.863874  
3249.000000	97.833122  
3248.000000	97.798875  
3247.000000	97.759594  
3246.000000	97.715468  
3245.000000	97.672387  
3244.000000	97.639795  
3243.000000	97.622852  
3242.000000	97.617419  
3241.000000	97.612696  
3240.000000	97.597833  
3239.000000	97.567613  
3238.000000	97.525591  
3237.000000	97.482678  
3236.000000	97.449272  
3235.000000	97.426093  
3234.000000	97.403904  
3233.000000	97.373369  
3232.000000	97.333785  
3231.000000	97.291763  
3230.000000	97.254277  
3229.000000	97.224522  
3228.000000	97.201285  
3227.000000	97.179274  
3226.000000	97.152114  
3225.000000	97.118375  
3224.000000	97.083681  
3223.000000	97.054127  
3222.000000	97.028440  
3221.000000	96.999361  
