PE IR                   SPECTRUM    ASCII       PEDS        1.60        
  -1
~SP.SP
18/04/18
12:34:39.00
18/04/18
12:34:39.00
Claudia

650.000000
16









SPECTRUM 100,CPU32 MAIN 00.02.8200 12-DECEMBER-2006 10:00:00
MIR TGS
MIR
OPTKBR
78890
0.200000

4.000000
STRONG
RATIO
SPECTRUM
MAGNITUDE
UNIVERSAL ATR
DOUBLE

COMBINED


0


#HDR
-1
-1
#GR
CM-1
%T
0.00002384185791015625
0.0
4000.000000
-1.000000
3351
8
98.830542
64.901615
#DATA
4000.000000	98.550413 
3999.000000	98.549610 
3998.000000	98.550155 
3997.000000	98.554710 
3996.000000	98.562372 
3995.000000	98.570821 
3994.000000	98.577427 
3993.000000	98.580060 
3992.000000	98.578234 
3991.000000	98.573830 
3990.000000	98.570152 
3989.000000	98.569656 
3988.000000	98.572259 
3987.000000	98.575619 
3986.000000	98.576768 
3985.000000	98.573787 
3984.000000	98.566964 
3983.000000	98.558777 
3982.000000	98.552395 
3981.000000	98.549700 
3980.000000	98.550554 
3979.000000	98.553897 
3978.000000	98.558963 
3977.000000	98.565170 
3976.000000	98.571399 
3975.000000	98.576163 
3974.000000	98.578619 
3973.000000	98.579121 
3972.000000	98.578513 
3971.000000	98.577107 
3970.000000	98.574367 
3969.000000	98.569841 
3968.000000	98.564531 
3967.000000	98.560927 
3966.000000	98.561122 
3965.000000	98.564685 
3964.000000	98.568849 
3963.000000	98.571202 
3962.000000	98.571973 
3961.000000	98.573229 
3960.000000	98.576121 
3959.000000	98.579856 
3958.000000	98.583123 
3957.000000	98.585813 
3956.000000	98.589083 
3955.000000	98.593869 
3954.000000	98.599717 
3953.000000	98.604571 
3952.000000	98.605796 
3951.000000	98.601995 
3950.000000	98.594170 
3949.000000	98.585508 
3948.000000	98.579661 
3947.000000	98.578992 
3946.000000	98.583676 
3945.000000	98.591494 
3944.000000	98.598799 
3943.000000	98.602891 
3942.000000	98.604155 
3941.000000	98.604909 
3940.000000	98.605874 
3939.000000	98.604987 
3938.000000	98.600033 
3937.000000	98.591966 
3936.000000	98.585033 
3935.000000	98.583002 
3934.000000	98.585680 
3933.000000	98.588932 
3932.000000	98.588627 
3931.000000	98.584537 
3930.000000	98.580133 
3929.000000	98.579376 
3928.000000	98.583479 
3927.000000	98.590084 
3926.000000	98.595313 
3925.000000	98.596947 
3924.000000	98.595964 
3923.000000	98.594698 
3922.000000	98.594119 
3921.000000	98.594081 
3920.000000	98.594676 
3919.000000	98.595787 
3918.000000	98.595332 
3917.000000	98.590208 
3916.000000	98.580073 
3915.000000	98.568766 
3914.000000	98.560907 
3913.000000	98.558350 
3912.000000	98.559600 
3911.000000	98.562138 
3910.000000	98.564476 
3909.000000	98.567075 
3908.000000	98.572108 
3907.000000	98.581132 
3906.000000	98.592232 
3905.000000	98.599165 
3904.000000	98.596504 
3903.000000	98.586508 
3902.000000	98.577576 
3901.000000	98.575703 
3900.000000	98.579939 
3899.000000	98.585658 
3898.000000	98.590078 
3897.000000	98.593432 
3896.000000	98.596797 
3895.000000	98.601540 
3894.000000	98.608458 
3893.000000	98.615296 
3892.000000	98.615959 
3891.000000	98.606458 
3890.000000	98.591188 
3889.000000	98.578819 
3888.000000	98.574664 
3887.000000	98.577332 
3886.000000	98.581735 
3885.000000	98.585616 
3884.000000	98.590472 
3883.000000	98.596303 
3882.000000	98.600140 
3881.000000	98.600035 
3880.000000	98.598574 
3879.000000	98.600148 
3878.000000	98.606698 
3877.000000	98.616823 
3876.000000	98.626947 
3875.000000	98.632582 
3874.000000	98.631652 
3873.000000	98.626639 
3872.000000	98.621250 
3871.000000	98.615545 
3870.000000	98.607943 
3869.000000	98.601988 
3868.000000	98.603013 
3867.000000	98.610003 
3866.000000	98.616352 
3865.000000	98.617190 
3864.000000	98.613425 
3863.000000	98.608666 
3862.000000	98.604052 
3861.000000	98.599404 
3860.000000	98.594825 
3859.000000	98.589203 
3858.000000	98.580485 
3857.000000	98.569824 
3856.000000	98.563599 
3855.000000	98.565937 
3854.000000	98.568094 
3853.000000	98.563278 
3852.000000	98.559778 
3851.000000	98.564317 
3850.000000	98.572979 
3849.000000	98.580979 
3848.000000	98.587348 
3847.000000	98.593380 
3846.000000	98.599583 
3845.000000	98.605207 
3844.000000	98.609027 
3843.000000	98.610265 
3842.000000	98.608639 
3841.000000	98.604822 
3840.000000	98.600594 
3839.000000	98.598243 
3838.000000	98.598863 
3837.000000	98.601054 
3836.000000	98.602693 
3835.000000	98.603263 
3834.000000	98.603934 
3833.000000	98.605800 
3832.000000	98.608208 
3831.000000	98.609292 
3830.000000	98.607666 
3829.000000	98.603170 
3828.000000	98.596776 
3827.000000	98.590713 
3826.000000	98.587849 
3825.000000	98.590315 
3824.000000	98.597917 
3823.000000	98.606894 
3822.000000	98.609673 
3821.000000	98.602260 
3820.000000	98.591055 
3819.000000	98.584604 
3818.000000	98.585160 
3817.000000	98.589517 
3816.000000	98.594451 
3815.000000	98.601125 
3814.000000	98.610511 
3813.000000	98.618215 
3812.000000	98.618734 
3811.000000	98.611899 
3810.000000	98.602735 
3809.000000	98.595925 
3808.000000	98.590465 
3807.000000	98.582719 
3806.000000	98.573354 
3805.000000	98.566764 
3804.000000	98.565707 
3803.000000	98.569765 
3802.000000	98.575612 
3801.000000	98.581746 
3800.000000	98.590486 
3799.000000	98.601083 
3798.000000	98.608542 
3797.000000	98.609855 
3796.000000	98.607699 
3795.000000	98.607373 
3794.000000	98.610895 
3793.000000	98.616039 
3792.000000	98.620230 
3791.000000	98.622861 
3790.000000	98.623723 
3789.000000	98.621691 
3788.000000	98.616358 
3787.000000	98.609963 
3786.000000	98.606143 
3785.000000	98.606450 
3784.000000	98.608923 
3783.000000	98.610245 
3782.000000	98.608192 
3781.000000	98.602502 
3780.000000	98.594788 
3779.000000	98.588652 
3778.000000	98.587806 
3777.000000	98.593142 
3776.000000	98.601885 
3775.000000	98.609946 
3774.000000	98.614966 
3773.000000	98.617187 
3772.000000	98.617634 
3771.000000	98.616696 
3770.000000	98.615290 
3769.000000	98.615958 
3768.000000	98.620418 
3767.000000	98.626331 
3766.000000	98.628982 
3765.000000	98.626163 
3764.000000	98.620360 
3763.000000	98.615612 
3762.000000	98.613032 
3761.000000	98.610667 
3760.000000	98.606206 
3759.000000	98.598813 
3758.000000	98.588308 
3757.000000	98.575301 
3756.000000	98.562385 
3755.000000	98.552751 
3754.000000	98.547269 
3753.000000	98.543921 
3752.000000	98.540867 
3751.000000	98.538755 
3750.000000	98.538898 
3749.000000	98.540459 
3748.000000	98.542540 
3747.000000	98.546125 
3746.000000	98.551128 
3745.000000	98.551918 
3744.000000	98.548291 
3743.000000	98.550470 
3742.000000	98.561618 
3741.000000	98.573551 
3740.000000	98.579171 
3739.000000	98.578292 
3738.000000	98.574219 
3737.000000	98.568490 
3736.000000	98.562892 
3735.000000	98.561809 
3734.000000	98.565895 
3733.000000	98.568023 
3732.000000	98.561240 
3731.000000	98.546870 
3730.000000	98.532417 
3729.000000	98.524438 
3728.000000	98.524998 
3727.000000	98.531696 
3726.000000	98.539942 
3725.000000	98.545807 
3724.000000	98.547808 
3723.000000	98.547520 
3722.000000	98.548323 
3721.000000	98.553548 
3720.000000	98.564215 
3719.000000	98.578462 
3718.000000	98.592443 
3717.000000	98.601707 
3716.000000	98.603165 
3715.000000	98.595412 
3714.000000	98.579582 
3713.000000	98.561138 
3712.000000	98.548223 
3711.000000	98.546234 
3710.000000	98.552876 
3709.000000	98.561535 
3708.000000	98.568080 
3707.000000	98.571962 
3706.000000	98.573982 
3705.000000	98.574405 
3704.000000	98.573061 
3703.000000	98.570657 
3702.000000	98.569140 
3701.000000	98.570990 
3700.000000	98.577404 
3699.000000	98.586820 
3698.000000	98.595479 
3697.000000	98.599838 
3696.000000	98.599427 
3695.000000	98.596604 
3694.000000	98.593727 
3693.000000	98.592081 
3692.000000	98.592816 
3691.000000	98.596904 
3690.000000	98.602303 
3689.000000	98.604935 
3688.000000	98.604680 
3687.000000	98.605380 
3686.000000	98.608963 
3685.000000	98.614038 
3684.000000	98.619343 
3683.000000	98.625566 
3682.000000	98.632834 
3681.000000	98.636931 
3680.000000	98.632050 
3679.000000	98.618696 
3678.000000	98.606340 
3677.000000	98.605106 
3676.000000	98.613524 
3675.000000	98.622438 
3674.000000	98.627283 
3673.000000	98.629280 
3672.000000	98.631132 
3671.000000	98.635349 
3670.000000	98.642388 
3669.000000	98.651473 
3668.000000	98.660437 
3667.000000	98.666160 
3666.000000	98.667715 
3665.000000	98.666916 
3664.000000	98.666138 
3663.000000	98.666131 
3662.000000	98.665591 
3661.000000	98.662807 
3660.000000	98.658284 
3659.000000	98.654754 
3658.000000	98.654737 
3657.000000	98.657828 
3656.000000	98.662415 
3655.000000	98.668455 
3654.000000	98.675406 
3653.000000	98.680416 
3652.000000	98.680258 
3651.000000	98.674551 
3650.000000	98.666495 
3649.000000	98.660494 
3648.000000	98.658096 
3647.000000	98.657697 
3646.000000	98.657227 
3645.000000	98.655266 
3644.000000	98.650401 
3643.000000	98.642031 
3642.000000	98.632290 
3641.000000	98.625163 
3640.000000	98.623041 
3639.000000	98.624299 
3638.000000	98.625847 
3637.000000	98.626511 
3636.000000	98.626309 
3635.000000	98.623907 
3634.000000	98.617494 
3633.000000	98.608817 
3632.000000	98.603828 
3631.000000	98.607745 
3630.000000	98.617756 
3629.000000	98.624120 
3628.000000	98.623220 
3627.000000	98.620104 
3626.000000	98.618579 
3625.000000	98.619153 
3624.000000	98.622322 
3623.000000	98.628717 
3622.000000	98.637377 
3621.000000	98.645184 
3620.000000	98.648637 
3619.000000	98.647268 
3618.000000	98.644770 
3617.000000	98.645524 
3616.000000	98.651440 
3615.000000	98.661086 
3614.000000	98.669831 
3613.000000	98.672874 
3612.000000	98.669248 
3611.000000	98.661561 
3610.000000	98.652744 
3609.000000	98.644758 
3608.000000	98.639500 
3607.000000	98.638708 
3606.000000	98.641751 
3605.000000	98.644971 
3604.000000	98.644374 
3603.000000	98.639158 
3602.000000	98.633444 
3601.000000	98.633418 
3600.000000	98.641408 
3599.000000	98.652823 
3598.000000	98.660083 
3597.000000	98.658967 
3596.000000	98.651301 
3595.000000	98.642138 
3594.000000	98.635412 
3593.000000	98.632843 
3592.000000	98.635502 
3591.000000	98.644415 
3590.000000	98.658846 
3589.000000	98.674146 
3588.000000	98.683311 
3587.000000	98.683325 
3586.000000	98.678282 
3585.000000	98.674416 
3584.000000	98.674731 
3583.000000	98.678016 
3582.000000	98.681616 
3581.000000	98.683688 
3580.000000	98.683743 
3579.000000	98.681912 
3578.000000	98.678843 
3577.000000	98.676507 
3576.000000	98.677488 
3575.000000	98.682890 
3574.000000	98.690658 
3573.000000	98.697038 
3572.000000	98.699628 
3571.000000	98.699055 
3570.000000	98.698080 
3569.000000	98.699390 
3568.000000	98.703460 
3567.000000	98.707799 
3566.000000	98.708924 
3565.000000	98.705607 
3564.000000	98.699345 
3563.000000	98.691843 
3562.000000	98.683419 
3561.000000	98.674771 
3560.000000	98.669469 
3559.000000	98.672228 
3558.000000	98.683676 
3557.000000	98.698160 
3556.000000	98.708088 
3555.000000	98.710111 
3554.000000	98.707039 
3553.000000	98.704139 
3552.000000	98.704665 
3551.000000	98.708212 
3550.000000	98.712195 
3549.000000	98.714149 
3548.000000	98.713469 
3547.000000	98.711537 
3546.000000	98.710227 
3545.000000	98.710122 
3544.000000	98.710532 
3543.000000	98.710609 
3542.000000	98.709646 
3541.000000	98.707074 
3540.000000	98.703256 
3539.000000	98.699987 
3538.000000	98.699403 
3537.000000	98.701785 
3536.000000	98.705025 
3535.000000	98.706357 
3534.000000	98.704783 
3533.000000	98.701780 
3532.000000	98.700029 
3531.000000	98.701316 
3530.000000	98.704841 
3529.000000	98.707561 
3528.000000	98.706824 
3527.000000	98.702911 
3526.000000	98.698647 
3525.000000	98.696633 
3524.000000	98.697212 
3523.000000	98.699035 
3522.000000	98.700923 
3521.000000	98.702536 
3520.000000	98.703708 
3519.000000	98.703965 
3518.000000	98.703343 
3517.000000	98.702978 
3516.000000	98.704363 
3515.000000	98.708141 
3514.000000	98.713789 
3513.000000	98.719760 
3512.000000	98.723293 
3511.000000	98.721007 
3510.000000	98.711645 
3509.000000	98.698627 
3508.000000	98.688483 
3507.000000	98.685771 
3506.000000	98.689792 
3505.000000	98.695798 
3504.000000	98.698692 
3503.000000	98.696151 
3502.000000	98.689801 
3501.000000	98.684237 
3500.000000	98.683860 
3499.000000	98.689185 
3498.000000	98.696273 
3497.000000	98.700876 
3496.000000	98.703032 
3495.000000	98.706230 
3494.000000	98.712216 
3493.000000	98.718420 
3492.000000	98.721331 
3491.000000	98.720979 
3490.000000	98.720922 
3489.000000	98.724139 
3488.000000	98.729914 
3487.000000	98.734904 
3486.000000	98.736534 
3485.000000	98.734956 
3484.000000	98.732219 
3483.000000	98.730316 
3482.000000	98.730030 
3481.000000	98.731011 
3480.000000	98.732337 
3479.000000	98.732824 
3478.000000	98.731336 
3477.000000	98.727488 
3476.000000	98.722236 
3475.000000	98.717537 
3474.000000	98.715027 
3473.000000	98.714827 
3472.000000	98.715753 
3471.000000	98.716823 
3470.000000	98.718465 
3469.000000	98.721826 
3468.000000	98.726756 
3467.000000	98.731115 
3466.000000	98.732698 
3465.000000	98.731345 
3464.000000	98.728484 
3463.000000	98.725103 
3462.000000	98.721320 
3461.000000	98.717997 
3460.000000	98.717428 
3459.000000	98.721651 
3458.000000	98.730571 
3457.000000	98.742036 
3456.000000	98.753463 
3455.000000	98.763002 
3454.000000	98.769844 
3453.000000	98.773935 
3452.000000	98.775277 
3451.000000	98.773278 
3450.000000	98.767117 
3449.000000	98.757506 
3448.000000	98.747994 
3447.000000	98.743620 
3446.000000	98.747222 
3445.000000	98.756910 
3444.000000	98.767237 
3443.000000	98.772823 
3442.000000	98.771763 
3441.000000	98.766536 
3440.000000	98.761800 
3439.000000	98.760711 
3438.000000	98.762471 
3437.000000	98.762894 
3436.000000	98.758047 
3435.000000	98.748252 
3434.000000	98.738762 
3433.000000	98.735704 
3432.000000	98.740455 
3431.000000	98.748150 
3430.000000	98.752033 
3429.000000	98.749221 
3428.000000	98.742038 
3427.000000	98.734489 
3426.000000	98.728658 
3425.000000	98.724684 
3424.000000	98.722891 
3423.000000	98.724653 
3422.000000	98.730894 
3421.000000	98.739977 
3420.000000	98.747682 
3419.000000	98.750272 
3418.000000	98.748356 
3417.000000	98.747090 
3416.000000	98.751125 
3415.000000	98.759308 
3414.000000	98.765716 
3413.000000	98.766381 
3412.000000	98.763537 
3411.000000	98.762373 
3410.000000	98.765268 
3409.000000	98.770728 
3408.000000	98.776458 
3407.000000	98.781216 
3406.000000	98.784202 
3405.000000	98.785046 
3404.000000	98.785039 
3403.000000	98.786501 
3402.000000	98.789923 
3401.000000	98.792658 
3400.000000	98.791463 
3399.000000	98.785988 
3398.000000	98.779364 
3397.000000	98.775509 
3396.000000	98.775834 
3395.000000	98.778187 
3394.000000	98.778924 
3393.000000	98.776322 
3392.000000	98.772201 
3391.000000	98.770152 
3390.000000	98.772383 
3389.000000	98.778335 
3388.000000	98.785810 
3387.000000	98.792872 
3386.000000	98.799010 
3385.000000	98.804801 
3384.000000	98.810199 
3383.000000	98.813125 
3382.000000	98.810676 
3381.000000	98.802443 
3380.000000	98.792017 
3379.000000	98.784388 
3378.000000	98.781874 
3377.000000	98.782903 
3376.000000	98.783970 
3375.000000	98.782077 
3374.000000	98.776266 
3373.000000	98.768613 
3372.000000	98.763839 
3371.000000	98.766281 
3370.000000	98.775928 
3369.000000	98.787560 
3368.000000	98.794632 
3367.000000	98.794557 
3366.000000	98.790452 
3365.000000	98.787691 
3364.000000	98.788636 
3363.000000	98.790854 
3362.000000	98.790602 
3361.000000	98.787582 
3360.000000	98.785281 
3359.000000	98.786570 
3358.000000	98.790174 
3357.000000	98.792352 
3356.000000	98.791336 
3355.000000	98.789033 
3354.000000	98.788639 
3353.000000	98.791830 
3352.000000	98.798443 
3351.000000	98.807592 
3350.000000	98.817884 
3349.000000	98.826696 
3348.000000	98.830542 
3347.000000	98.827473 
3346.000000	98.819502 
3345.000000	98.811788 
3344.000000	98.808493 
3343.000000	98.809328 
3342.000000	98.810532 
3341.000000	98.808867 
3340.000000	98.803988 
3339.000000	98.797433 
3338.000000	98.790727 
3337.000000	98.784819 
3336.000000	98.780211 
3335.000000	98.776924 
3334.000000	98.774921 
3333.000000	98.774881 
3332.000000	98.777802 
3331.000000	98.783422 
3330.000000	98.789651 
3329.000000	98.794001 
3328.000000	98.795206 
3327.000000	98.793481 
3326.000000	98.790153 
3325.000000	98.787223 
3324.000000	98.786188 
3323.000000	98.786692 
3322.000000	98.787121 
3321.000000	98.786828 
3320.000000	98.786678 
3319.000000	98.786906 
3318.000000	98.785689 
3317.000000	98.780909 
3316.000000	98.772611 
3315.000000	98.763002 
3314.000000	98.754678 
3313.000000	98.749347 
3312.000000	98.747109 
3311.000000	98.746011 
3310.000000	98.743140 
3309.000000	98.737251 
3308.000000	98.729670 
3307.000000	98.721812 
3306.000000	98.712807 
3305.000000	98.700888 
3304.000000	98.686511 
3303.000000	98.672689 
3302.000000	98.662339 
3301.000000	98.656057 
3300.000000	98.651962 
3299.000000	98.646556 
3298.000000	98.636154 
3297.000000	98.619214 
3296.000000	98.598101 
3295.000000	98.578047 
3294.000000	98.563718 
3293.000000	98.556273 
3292.000000	98.553159 
3291.000000	98.550497 
3290.000000	98.546028 
3289.000000	98.539947 
3288.000000	98.532973 
3287.000000	98.524478 
3286.000000	98.513677 
3285.000000	98.502138 
3284.000000	98.492841 
3283.000000	98.486120 
3282.000000	98.478628 
3281.000000	98.467827 
3280.000000	98.456013 
3279.000000	98.448030 
3278.000000	98.445981 
3277.000000	98.447959 
3276.000000	98.451229 
3275.000000	98.454536 
3274.000000	98.457090 
3273.000000	98.457128 
3272.000000	98.452636 
3271.000000	98.443140 
3270.000000	98.430419 
3269.000000	98.417406 
3268.000000	98.406089 
3267.000000	98.396377 
3266.000000	98.387368 
3265.000000	98.379378 
3264.000000	98.373452 
3263.000000	98.368868 
3262.000000	98.363093 
3261.000000	98.355095 
3260.000000	98.346816 
3259.000000	98.339937 
3258.000000	98.332906 
3257.000000	98.323233 
3256.000000	98.311656 
3255.000000	98.301655 
3254.000000	98.295098 
3253.000000	98.290204 
3252.000000	98.283640 
3251.000000	98.273058 
3250.000000	98.258009 
3249.000000	98.240537 
3248.000000	98.225012 
3247.000000	98.215262 
3246.000000	98.210788 
3245.000000	98.206835 
3244.000000	98.198935 
3243.000000	98.186725 
3242.000000	98.173050 
3241.000000	98.160420 
3240.000000	98.148996 
3239.000000	98.137416 
3238.000000	98.124811 
3237.000000	98.111847 
3236.000000	98.099928 
3235.000000	98.089498 
3234.000000	98.079300 
3233.000000	98.067201 
3232.000000	98.051449 
3231.000000	98.031588 
3230.000000	98.009150 
3229.000000	97.987392 
3228.000000	97.968958 
3227.000000	97.953187 
3226.000000	97.936906 
3225.000000	97.918468 
3224.000000	97.899739 
3223.000000	97.883292 
3222.000000	97.869040 
3221.000000	97.855001 
3220.000000	97.840327 
3219.000000	97.825987 
3218.000000	97.812882 
3217.000000	97.800594 
3216.000000	97.787810 
3215.000000	97.773199 
3214.000000	97.756368 
3213.000000	97.738551 
3212.000000	97.721714 
3211.000000	97.706511 
3210.000000	97.692097 
3209.000000	97.678416 
3208.000000	97.666923 
3207.000000	97.657781 
3206.000000	97.647998 
3205.000000	97.634270 
3204.000000	97.616476 
3203.000000	97.596331 
3202.000000	97.573689 
3201.000000	97.547051 
3200.000000	97.517696 
3199.000000	97.490538 
3198.000000	97.469606 
3197.000000	97.453848 
3196.000000	97.438151 
3195.000000	97.417703 
3194.000000	97.391157 
3193.000000	97.360623 
3192.000000	97.329135 
3191.000000	97.297787 
3190.000000	97.265421 
3189.000000	97.231399 
