PE IR                   SPECTRUM    ASCII       PEDS        1.60        
  -1
~SP.SP
18/04/18
12:38:55.00
18/04/18
12:38:55.00
Claudia

650.000000
16









SPECTRUM 100,CPU32 MAIN 00.02.8200 12-DECEMBER-2006 10:00:00
MIR TGS
MIR
OPTKBR
78890
0.200000

4.000000
STRONG
RATIO
SPECTRUM
MAGNITUDE
UNIVERSAL ATR
DOUBLE

COMBINED


0


#HDR
-1
-1
#GR
CM-1
%T
0.00002384185791015625
0.0
4000.000000
-1.000000
3351
8
98.112999
29.347890
#DATA
4000.000000	97.886362 
3999.000000	97.883691 
3998.000000	97.878162 
3997.000000	97.874121 
3996.000000	97.887500 
3995.000000	97.894477 
3994.000000	97.903050 
3993.000000	97.910188 
3992.000000	97.913386 
3991.000000	97.911926 
3990.000000	97.907504 
3989.000000	97.902973 
3988.000000	97.900331 
3987.000000	97.899655 
3986.000000	97.899514 
3985.000000	97.898239 
3984.000000	97.895333 
3983.000000	97.891917 
3982.000000	97.889721 
3981.000000	97.889631 
3980.000000	97.891366 
3979.000000	97.894384 
3978.000000	97.898317 
3977.000000	97.902296 
3976.000000	97.904745 
3975.000000	97.904547 
3974.000000	97.902094 
3973.000000	97.898757 
3972.000000	97.895667 
3971.000000	97.893330 
3970.000000	97.891690 
3969.000000	97.890144 
3968.000000	97.888091 
3967.000000	97.885702 
3966.000000	97.883857 
3965.000000	97.883006 
3964.000000	97.882554 
3963.000000	97.881915 
3962.000000	97.881851 
3961.000000	97.883999 
3960.000000	97.889274 
3959.000000	97.897361 
3958.000000	97.907155 
3957.000000	97.917213 
3956.000000	97.926215 
3955.000000	97.933401 
3954.000000	97.938656 
3953.000000	97.941696 
3952.000000	97.941518 
3951.000000	97.937259 
3950.000000	97.929591 
3949.000000	97.921630 
3948.000000	97.917867 
3947.000000	97.921453 
3946.000000	97.931944 
3945.000000	97.945172 
3944.000000	97.955472 
3943.000000	97.958911 
3942.000000	97.955660 
3941.000000	97.949072 
3940.000000	97.942566 
3939.000000	97.937861 
3938.000000	97.934963 
3937.000000	97.932599 
3936.000000	97.929161 
3935.000000	97.923915 
3934.000000	97.917978 
3933.000000	97.913372 
3932.000000	97.911072 
3931.000000	97.910013 
3930.000000	97.908622 
3929.000000	97.907212 
3928.000000	97.907723 
3927.000000	97.911133 
3926.000000	97.915729 
3925.000000	97.917576 
3924.000000	97.913794 
3923.000000	97.905674 
3922.000000	97.897707 
3921.000000	97.894181 
3920.000000	97.896299 
3919.000000	97.901982 
3918.000000	97.908069 
3917.000000	97.912800 
3916.000000	97.916765 
3915.000000	97.921556 
3914.000000	97.927789 
3913.000000	97.934232 
3912.000000	97.938911 
3911.000000	97.941528 
3910.000000	97.944093 
3909.000000	97.949355 
3908.000000	97.959011 
3907.000000	97.972124 
3906.000000	97.984695 
3905.000000	97.990490 
3904.000000	97.985000 
3903.000000	97.970521 
3902.000000	97.954918 
3901.000000	97.945224 
3900.000000	97.943876 
3899.000000	97.949117 
3898.000000	97.958119 
3897.000000	97.968618 
3896.000000	97.978676 
3895.000000	97.986963 
3894.000000	97.992901 
3893.000000	97.995607 
3892.000000	97.993591 
3891.000000	97.986537 
3890.000000	97.977222 
3889.000000	97.969398 
3888.000000	97.966034 
3887.000000	97.968938 
3886.000000	97.977376 
3885.000000	97.986888 
3884.000000	97.992036 
3883.000000	97.990213 
3882.000000	97.982951 
3881.000000	97.974801 
3880.000000	97.970361 
3879.000000	97.969851 
3878.000000	97.970043 
3877.000000	97.969061 
3876.000000	97.969266 
3875.000000	97.974426 
3874.000000	97.984200 
3873.000000	97.993190 
3872.000000	97.996567 
3871.000000	97.994816 
3870.000000	97.992661 
3869.000000	97.994169 
3868.000000	97.998017 
3867.000000	97.999521 
3866.000000	97.997107 
3865.000000	97.993846 
3864.000000	97.993318 
3863.000000	97.995437 
3862.000000	97.996351 
3861.000000	97.993528 
3860.000000	97.989275 
3859.000000	97.988346 
3858.000000	97.992999 
3857.000000	98.001031 
3856.000000	98.008275 
3855.000000	98.013243 
3854.000000	98.013238 
3853.000000	98.005866 
3852.000000	97.995617 
3851.000000	97.987839 
3850.000000	97.983004 
3849.000000	97.981577 
3848.000000	97.984211 
3847.000000	97.990726 
3846.000000	97.998942 
3845.000000	98.005314 
3844.000000	98.008265 
3843.000000	98.009942 
3842.000000	98.013193 
3841.000000	98.019194 
3840.000000	98.027321 
3839.000000	98.035339 
3838.000000	98.040454 
3837.000000	98.040892 
3836.000000	98.037178 
3835.000000	98.031063 
3834.000000	98.023195 
3833.000000	98.013641 
3832.000000	98.003707 
3831.000000	97.996007 
3830.000000	97.992538 
3829.000000	97.992732 
3828.000000	97.995013 
3827.000000	97.999890 
3826.000000	98.008622 
3825.000000	98.019310 
3824.000000	98.026773 
3823.000000	98.027508 
3822.000000	98.023166 
3821.000000	98.019216 
3820.000000	98.020235 
3819.000000	98.025209 
3818.000000	98.028882 
3817.000000	98.028259 
3816.000000	98.025585 
3815.000000	98.024305 
3814.000000	98.023851 
3813.000000	98.021105 
3812.000000	98.014578 
3811.000000	98.005566 
3810.000000	97.996075 
3809.000000	97.987663 
3808.000000	97.982264 
3807.000000	97.982676 
3806.000000	97.989487 
3805.000000	97.998741 
3804.000000	98.003929 
3803.000000	98.001684 
3802.000000	97.994707 
3801.000000	97.989106 
3800.000000	97.988867 
3799.000000	97.992906 
3798.000000	97.998013 
3797.000000	98.002446 
3796.000000	98.005540 
3795.000000	98.006393 
3794.000000	98.004585 
3793.000000	98.001973 
3792.000000	98.002217 
3791.000000	98.007751 
3790.000000	98.017038 
3789.000000	98.025473 
3788.000000	98.029360 
3787.000000	98.028719 
3786.000000	98.026714 
3785.000000	98.026480 
3784.000000	98.028141 
3783.000000	98.028628 
3782.000000	98.024627 
3781.000000	98.016011 
3780.000000	98.006789 
3779.000000	98.002451 
3778.000000	98.005008 
3777.000000	98.011496 
3776.000000	98.017768 
3775.000000	98.022455 
3774.000000	98.026316 
3773.000000	98.029382 
3772.000000	98.030582 
3771.000000	98.029666 
3770.000000	98.027843 
3769.000000	98.026564 
3768.000000	98.026146 
3767.000000	98.025360 
3766.000000	98.023507 
3765.000000	98.021389 
3764.000000	98.019864 
3763.000000	98.018862 
3762.000000	98.018354 
3761.000000	98.019056 
3760.000000	98.020698 
3759.000000	98.021624 
3758.000000	98.020630 
3757.000000	98.018173 
3756.000000	98.015671 
3755.000000	98.014228 
3754.000000	98.013903 
3753.000000	98.013558 
3752.000000	98.010910 
3751.000000	98.004379 
3750.000000	97.996964 
3749.000000	97.992889 
3748.000000	97.991206 
3747.000000	97.986592 
3746.000000	97.975738 
3745.000000	97.961167 
3744.000000	97.950149 
3743.000000	97.945575 
3742.000000	97.942421 
3741.000000	97.935014 
3740.000000	97.922061 
3739.000000	97.906180 
3738.000000	97.892845 
3737.000000	97.887181 
3736.000000	97.889888 
3735.000000	97.895772 
3734.000000	97.897083 
3733.000000	97.889441 
3732.000000	97.874637 
3731.000000	97.858323 
3730.000000	97.845280 
3729.000000	97.837152 
3728.000000	97.834113 
3727.000000	97.835727 
3726.000000	97.839967 
3725.000000	97.844707 
3724.000000	97.850978 
3723.000000	97.862206 
3722.000000	97.879541 
3721.000000	97.900929 
3720.000000	97.923278 
3719.000000	97.944137 
3718.000000	97.961830 
3717.000000	97.973292 
3716.000000	97.974655 
3715.000000	97.963370 
3714.000000	97.940490 
3713.000000	97.913439 
3712.000000	97.892492 
3711.000000	97.885065 
3710.000000	97.890353 
3709.000000	97.901407 
3708.000000	97.911463 
3707.000000	97.916849 
3706.000000	97.918128 
3705.000000	97.918506 
3704.000000	97.922169 
3703.000000	97.930785 
3702.000000	97.941670 
3701.000000	97.950334 
3700.000000	97.955254 
3699.000000	97.957581 
3698.000000	97.959610 
3697.000000	97.962609 
3696.000000	97.965657 
3695.000000	97.967203 
3694.000000	97.968140 
3693.000000	97.973912 
3692.000000	97.990123 
3691.000000	98.015877 
3690.000000	98.038957 
3689.000000	98.046422 
3688.000000	98.039414 
3687.000000	98.029213 
3686.000000	98.023345 
3685.000000	98.022267 
3684.000000	98.024344 
3683.000000	98.028951 
3682.000000	98.036650 
3681.000000	98.046201 
3680.000000	98.054523 
3679.000000	98.058648 
3678.000000	98.059244 
3677.000000	98.062061 
3676.000000	98.070817 
3675.000000	98.082329 
3674.000000	98.090999 
3673.000000	98.092542 
3672.000000	98.085404 
3671.000000	98.074520 
3670.000000	98.067678 
3669.000000	98.069215 
3668.000000	98.077204 
3667.000000	98.085882 
3666.000000	98.090888 
3665.000000	98.091733 
3664.000000	98.090174 
3663.000000	98.088032 
3662.000000	98.086261 
3661.000000	98.085309 
3660.000000	98.085679 
3659.000000	98.087414 
3658.000000	98.090075 
3657.000000	98.093343 
3656.000000	98.097830 
3655.000000	98.104215 
3654.000000	98.110602 
3653.000000	98.112999 
3652.000000	98.108983 
3651.000000	98.100130 
3650.000000	98.088757 
3649.000000	98.075763 
3648.000000	98.063597 
3647.000000	98.055707 
3646.000000	98.052841 
3645.000000	98.052758 
3644.000000	98.051872 
3643.000000	98.047349 
3642.000000	98.038843 
3641.000000	98.028431 
3640.000000	98.019757 
3639.000000	98.015668 
3638.000000	98.015874 
3637.000000	98.016349 
3636.000000	98.012298 
3635.000000	98.002884 
3634.000000	97.991952 
3633.000000	97.983534 
3632.000000	97.978162 
3631.000000	97.974664 
3630.000000	97.973599 
3629.000000	97.975077 
3628.000000	97.976885 
3627.000000	97.976755 
3626.000000	97.973988 
3625.000000	97.971177 
3624.000000	97.973474 
3623.000000	97.984729 
3622.000000	98.004521 
3621.000000	98.027758 
3620.000000	98.046096 
3619.000000	98.053791 
3618.000000	98.053933 
3617.000000	98.053749 
3616.000000	98.056084 
3615.000000	98.058528 
3614.000000	98.057326 
3613.000000	98.051347 
3612.000000	98.042226 
3611.000000	98.031161 
3610.000000	98.017561 
3609.000000	98.002021 
3608.000000	97.987319 
3607.000000	97.975961 
3606.000000	97.968174 
3605.000000	97.962019 
3604.000000	97.955460 
3603.000000	97.947718 
3602.000000	97.941367 
3601.000000	97.941731 
3600.000000	97.951384 
3599.000000	97.965933 
3598.000000	97.977348 
3597.000000	97.980949 
3596.000000	97.978588 
3595.000000	97.975714 
3594.000000	97.975374 
3593.000000	97.977724 
3592.000000	97.982596 
3591.000000	97.991107 
3590.000000	98.004451 
3589.000000	98.021944 
3588.000000	98.038752 
3587.000000	98.048568 
3586.000000	98.049890 
3585.000000	98.046174 
3584.000000	98.042050 
3583.000000	98.040086 
3582.000000	98.041186 
3581.000000	98.044547 
3580.000000	98.047785 
3579.000000	98.048043 
3578.000000	98.044480 
3577.000000	98.040207 
3576.000000	98.039918 
3575.000000	98.046209 
3574.000000	98.056834 
3573.000000	98.066566 
3572.000000	98.070573 
3571.000000	98.067218 
3570.000000	98.059095 
3569.000000	98.052925 
3568.000000	98.055072 
3567.000000	98.064769 
3566.000000	98.074350 
3565.000000	98.077349 
3564.000000	98.072852 
3563.000000	98.063568 
3562.000000	98.052860 
3561.000000	98.043962 
3560.000000	98.039991 
3559.000000	98.042621 
3558.000000	98.050719 
3557.000000	98.060908 
3556.000000	98.069449 
3555.000000	98.073987 
3554.000000	98.074803 
3553.000000	98.074685 
3552.000000	98.076950 
3551.000000	98.082165 
3550.000000	98.087175 
3549.000000	98.088033 
3548.000000	98.083809 
3547.000000	98.077048 
3546.000000	98.071415 
3545.000000	98.069308 
3544.000000	98.071311 
3543.000000	98.076292 
3542.000000	98.081318 
3541.000000	98.083006 
3540.000000	98.080050 
3539.000000	98.074328 
3538.000000	98.069299 
3537.000000	98.066961 
3536.000000	98.066411 
3535.000000	98.065082 
3534.000000	98.061556 
3533.000000	98.057292 
3532.000000	98.055512 
3531.000000	98.058378 
3530.000000	98.064916 
3529.000000	98.071741 
3528.000000	98.075723 
3527.000000	98.076014 
3526.000000	98.074182 
3525.000000	98.072836 
3524.000000	98.073379 
3523.000000	98.074476 
3522.000000	98.073305 
3521.000000	98.068673 
3520.000000	98.062531 
3519.000000	98.057834 
3518.000000	98.055614 
3517.000000	98.054370 
3516.000000	98.052191 
3515.000000	98.048917 
3514.000000	98.046145 
3513.000000	98.045585 
3512.000000	98.047363 
3511.000000	98.049719 
3510.000000	98.050537 
3509.000000	98.049388 
3508.000000	98.047659 
3507.000000	98.046598 
3506.000000	98.045962 
3505.000000	98.044414 
3504.000000	98.040807 
3503.000000	98.035043 
3502.000000	98.028340 
3501.000000	98.022586 
3500.000000	98.018788 
3499.000000	98.016279 
3498.000000	98.013976 
3497.000000	98.012428 
3496.000000	98.013532 
3495.000000	98.018002 
3494.000000	98.024126 
3493.000000	98.029433 
3492.000000	98.032849 
3491.000000	98.034717 
3490.000000	98.035709 
3489.000000	98.036362 
3488.000000	98.036915 
3487.000000	98.037030 
3486.000000	98.036351 
3485.000000	98.035658 
3484.000000	98.036585 
3483.000000	98.039497 
3482.000000	98.042201 
3481.000000	98.041667 
3480.000000	98.036840 
3479.000000	98.029306 
3478.000000	98.021666 
3477.000000	98.015694 
3476.000000	98.011588 
3475.000000	98.008675 
3474.000000	98.006875 
3473.000000	98.006892 
3472.000000	98.008407 
3471.000000	98.008990 
3470.000000	98.006301 
3469.000000	98.001264 
3468.000000	97.997442 
3467.000000	97.996908 
3466.000000	97.998132 
3465.000000	97.998293 
3464.000000	97.996181 
3463.000000	97.992410 
3462.000000	97.988426 
3461.000000	97.986208 
3460.000000	97.987448 
3459.000000	97.991747 
3458.000000	97.996459 
3457.000000	97.999201 
3456.000000	98.000109 
3455.000000	98.000853 
3454.000000	98.002353 
3453.000000	98.004398 
3452.000000	98.006649 
3451.000000	98.008894 
3450.000000	98.010369 
3449.000000	98.009993 
3448.000000	98.007728 
3447.000000	98.005584 
3446.000000	98.006711 
3445.000000	98.012883 
3444.000000	98.022436 
3443.000000	98.030845 
3442.000000	98.034035 
3441.000000	98.031507 
3440.000000	98.026117 
3439.000000	98.021237 
3438.000000	98.018547 
3437.000000	98.017621 
3436.000000	98.016642 
3435.000000	98.013971 
3434.000000	98.010386 
3433.000000	98.009450 
3432.000000	98.013854 
3431.000000	98.021407 
3430.000000	98.026290 
3429.000000	98.024885 
3428.000000	98.019071 
3427.000000	98.013519 
3426.000000	98.011303 
3425.000000	98.012765 
3424.000000	98.016814 
3423.000000	98.021737 
3422.000000	98.025525 
3421.000000	98.026707 
3420.000000	98.024931 
3419.000000	98.020604 
3418.000000	98.014745 
3417.000000	98.009435 
3416.000000	98.007061 
3415.000000	98.008271 
3414.000000	98.011457 
3413.000000	98.014722 
3412.000000	98.017549 
3411.000000	98.020183 
3410.000000	98.022623 
3409.000000	98.024820 
3408.000000	98.026729 
3407.000000	98.027672 
3406.000000	98.027101 
3405.000000	98.026487 
3404.000000	98.028686 
3403.000000	98.034140 
3402.000000	98.039224 
3401.000000	98.040060 
3400.000000	98.036920 
3399.000000	98.033209 
3398.000000	98.030934 
3397.000000	98.028968 
3396.000000	98.025654 
3395.000000	98.021609 
3394.000000	98.019432 
3393.000000	98.021093 
3392.000000	98.025607 
3391.000000	98.029291 
3390.000000	98.028999 
3389.000000	98.025343 
3388.000000	98.022074 
3387.000000	98.022221 
3386.000000	98.025816 
3385.000000	98.031287 
3384.000000	98.037397 
3383.000000	98.042904 
3382.000000	98.045824 
3381.000000	98.044542 
3380.000000	98.039114 
3379.000000	98.031049 
3378.000000	98.022677 
3377.000000	98.017116 
3376.000000	98.016936 
3375.000000	98.021330 
3374.000000	98.025792 
3373.000000	98.026295 
3372.000000	98.023378 
3371.000000	98.020874 
3370.000000	98.021021 
3369.000000	98.022052 
3368.000000	98.020516 
3367.000000	98.015027 
3366.000000	98.007652 
3365.000000	98.002049 
3364.000000	98.000161 
3363.000000	98.000694 
3362.000000	98.001199 
3361.000000	98.001301 
3360.000000	98.002656 
3359.000000	98.005534 
3358.000000	98.007016 
3357.000000	98.003840 
3356.000000	97.996369 
3355.000000	97.988742 
3354.000000	97.985141 
3353.000000	97.986463 
3352.000000	97.990303 
3351.000000	97.993690 
3350.000000	97.995744 
3349.000000	97.997474 
3348.000000	97.999029 
3347.000000	97.998169 
3346.000000	97.992806 
3345.000000	97.984407 
3344.000000	97.977127 
3343.000000	97.973411 
3342.000000	97.971741 
3341.000000	97.968844 
3340.000000	97.962724 
3339.000000	97.953467 
3338.000000	97.942637 
3337.000000	97.932305 
3336.000000	97.923493 
3335.000000	97.915401 
3334.000000	97.907293 
3333.000000	97.900648 
3332.000000	97.897569 
3331.000000	97.897238 
3330.000000	97.896214 
3329.000000	97.892515 
3328.000000	97.887193 
3327.000000	97.881467 
3326.000000	97.874922 
3325.000000	97.867328 
3324.000000	97.859422 
3323.000000	97.850528 
3322.000000	97.838115 
3321.000000	97.821857 
3320.000000	97.805912 
3319.000000	97.794555 
3318.000000	97.786738 
3317.000000	97.777441 
3316.000000	97.763674 
3315.000000	97.747106 
3314.000000	97.731146 
3313.000000	97.717259 
3312.000000	97.704291 
3311.000000	97.690194 
3310.000000	97.674128 
3309.000000	97.657018 
3308.000000	97.639575 
3307.000000	97.619995 
3306.000000	97.595101 
3305.000000	97.564281 
3304.000000	97.530882 
3303.000000	97.499083 
3302.000000	97.470893 
3301.000000	97.446553 
3300.000000	97.425493 
3299.000000	97.405286 
3298.000000	97.381969 
3297.000000	97.353948 
3296.000000	97.324499 
3295.000000	97.298258 
3294.000000	97.276044 
3293.000000	97.255213 
3292.000000	97.234369 
3291.000000	97.215229 
3290.000000	97.199593 
3289.000000	97.186629 
3288.000000	97.174054 
3287.000000	97.160764 
3286.000000	97.147337 
3285.000000	97.134374 
3284.000000	97.120988 
3283.000000	97.105147 
3282.000000	97.085587 
3281.000000	97.063287 
3280.000000	97.040817 
3279.000000	97.020391 
3278.000000	97.003014 
3277.000000	96.989018 
3276.000000	96.978184 
3275.000000	96.969195 
3274.000000	96.960000 
3273.000000	96.948922 
3272.000000	96.934677 
3271.000000	96.915820 
3270.000000	96.891902 
3269.000000	96.865429 
3268.000000	96.840909 
3267.000000	96.821201 
3266.000000	96.805846 
3265.000000	96.792970 
3264.000000	96.780821 
3263.000000	96.767057 
3262.000000	96.748984 
3261.000000	96.726166 
3260.000000	96.701307 
3259.000000	96.676955 
3258.000000	96.652582 
3257.000000	96.626341 
3256.000000	96.598532 
3255.000000	96.571473 
3254.000000	96.546643 
3253.000000	96.523604 
3252.000000	96.501533 
3251.000000	96.480347 
3250.000000	96.459951 
3249.000000	96.439311 
3248.000000	96.416791 
3247.000000	96.391425 
3246.000000	96.363953 
3245.000000	96.336455 
3244.000000	96.310508 
3243.000000	96.285791 
3242.000000	96.260820 
3241.000000	96.234617 
3240.000000	96.206999 
3239.000000	96.177721 
3238.000000	96.146275 
3237.000000	96.112265 
3236.000000	96.075491 
3235.000000	96.036615 
3234.000000	95.998584 
3233.000000	95.965517 
3232.000000	95.937899 
3231.000000	95.910142 
3230.000000	95.875782 
3229.000000	95.834801 
3228.000000	95.793167 
3227.000000	95.755610 
3226.000000	95.722128 
3225.000000	95.691514 
3224.000000	95.664084 
3223.000000	95.639267 
3222.000000	95.613676 
3221.000000	95.584092 
3220.000000	95.550694 
3219.000000	95.515735 
3218.000000	95.480695 
3217.000000	95.446204 
3216.000000	95.412938 
3215.000000	95.380632 
3214.000000	95.347215 
3213.000000	95.310477 
3212.000000	95.270204 
3211.000000	95.228208 
3210.000000	95.187127 
3209.000000	95.149197 
3208.000000	95.114382 
3207.000000	95.079175 
3206.000000	95.038906 
3205.000000	94.991925 
3204.000000	94.940079 
3203.000000	94.884967 
3202.000000	94.826024 
3201.000000	94.763257 
3200.000000	94.699508 
3199.000000	94.638226 
3198.000000	94.580133 
3197.000000	94.523173 
3196.000000	94.464577 
3195.000000	94.402156 
3194.000000	94.334984 
3193.000000	94.263829 
3192.000000	94.189968 
3191.000000	94.113234 
3190.000000	94.032584 
3189.000000	93.948674 
