PE IR                   SPECTRUM    ASCII       PEDS        1.60        
  -1
~SP.SP
18/03/23
17:48:05.00
18/03/23
17:48:05.00
pili
NI
650.000000
4









SPECTRUM 100,CPU32 MAIN 00.02.8200 12-DECEMBER-2006 10:00:00
MIR TGS
MIR
OPTKBR
78890
0.200000

4.000000
STRONG
RATIO
SPECTRUM
MAGNITUDE
UNIVERSAL ATR
DOUBLE

COMBINED


0


#HDR
-1
-1
#GR
CM-1
%T
0.00002384185791015625
0.0
4000.000000
-1.000000
3351
8
101.676435
49.943242
#DATA
4000.000000	98.148994  
3999.000000	98.146843  
3998.000000	98.145854  
3997.000000	98.149070  
3996.000000	98.152702  
3995.000000	98.160412  
3994.000000	98.167442  
3993.000000	98.175088  
3992.000000	98.185767  
3991.000000	98.198523  
3990.000000	98.208138  
3989.000000	98.208995  
3988.000000	98.199626  
3987.000000	98.183874  
3986.000000	98.168473  
3985.000000	98.159436  
3984.000000	98.159087  
3983.000000	98.165151  
3982.000000	98.172489  
3981.000000	98.176598  
3980.000000	98.176618  
3979.000000	98.175347  
3978.000000	98.176069  
3977.000000	98.179026  
3976.000000	98.181086  
3975.000000	98.179013  
3974.000000	98.172485  
3973.000000	98.163615  
3972.000000	98.154259  
3971.000000	98.145075  
3970.000000	98.137216  
3969.000000	98.133515  
3968.000000	98.136587  
3967.000000	98.145896  
3966.000000	98.157664  
3965.000000	98.167928  
3964.000000	98.175058  
3963.000000	98.179037  
3962.000000	98.179152  
3961.000000	98.173884  
3960.000000	98.163870  
3959.000000	98.153835  
3958.000000	98.149995  
3957.000000	98.155072  
3956.000000	98.166289  
3955.000000	98.178414  
3954.000000	98.188256  
3953.000000	98.195604  
3952.000000	98.200717  
3951.000000	98.202580  
3950.000000	98.200350  
3949.000000	98.195528  
3948.000000	98.191193  
3947.000000	98.189180  
3946.000000	98.189152  
3945.000000	98.190142  
3944.000000	98.191949  
3943.000000	98.194895  
3942.000000	98.198613  
3941.000000	98.201297  
3940.000000	98.200651  
3939.000000	98.195910  
3938.000000	98.188861  
3937.000000	98.182863  
3936.000000	98.180826  
3935.000000	98.183519  
3934.000000	98.189185  
3933.000000	98.194748  
3932.000000	98.198055  
3931.000000	98.199405  
3930.000000	98.200408  
3929.000000	98.201456  
3928.000000	98.201129  
3927.000000	98.198622  
3926.000000	98.196060  
3925.000000	98.197482  
3924.000000	98.205336  
3923.000000	98.217703  
3922.000000	98.229106  
3921.000000	98.234541  
3920.000000	98.233356  
3919.000000	98.229686  
3918.000000	98.228509  
3917.000000	98.230833  
3916.000000	98.233351  
3915.000000	98.232298  
3914.000000	98.226628  
3913.000000	98.217729  
3912.000000	98.208156  
3911.000000	98.200581  
3910.000000	98.196944  
3909.000000	98.197580  
3908.000000	98.201240  
3907.000000	98.205836  
3906.000000	98.209695  
3905.000000	98.213028  
3904.000000	98.218424  
3903.000000	98.228031  
3902.000000	98.238452  
3901.000000	98.240982  
3900.000000	98.229073  
3899.000000	98.206033  
3898.000000	98.184109  
3897.000000	98.174608  
3896.000000	98.180188  
3895.000000	98.195201  
3894.000000	98.210245  
3893.000000	98.217332  
3892.000000	98.214915  
3891.000000	98.208919  
3890.000000	98.206304  
3889.000000	98.208742  
3888.000000	98.213065  
3887.000000	98.214182  
3886.000000	98.209112  
3885.000000	98.201151  
3884.000000	98.196953  
3883.000000	98.199058  
3882.000000	98.204190  
3881.000000	98.207942  
3880.000000	98.209394  
3879.000000	98.209970  
3878.000000	98.209042  
3877.000000	98.204842  
3876.000000	98.198607  
3875.000000	98.195067  
3874.000000	98.199180  
3873.000000	98.212585  
3872.000000	98.231248  
3871.000000	98.245748  
3870.000000	98.247343  
3869.000000	98.236411  
3868.000000	98.222252  
3867.000000	98.214015  
3866.000000	98.213206  
3865.000000	98.212896  
3864.000000	98.206592  
3863.000000	98.196908  
3862.000000	98.192639  
3861.000000	98.199047  
3860.000000	98.213636  
3859.000000	98.228532  
3858.000000	98.237598  
3857.000000	98.241210  
3856.000000	98.243049  
3855.000000	98.240501  
3854.000000	98.223161  
3853.000000	98.193312  
3852.000000	98.169216  
3851.000000	98.160437  
3850.000000	98.166312  
3849.000000	98.183980  
3848.000000	98.207866  
3847.000000	98.230000  
3846.000000	98.243463  
3845.000000	98.246168  
3844.000000	98.241873  
3843.000000	98.235695  
3842.000000	98.229926  
3841.000000	98.224004  
3840.000000	98.216877  
3839.000000	98.209396  
3838.000000	98.205149  
3837.000000	98.206555  
3836.000000	98.211598  
3835.000000	98.216722  
3834.000000	98.221463  
3833.000000	98.227892  
3832.000000	98.235864  
3831.000000	98.241116  
3830.000000	98.238809  
3829.000000	98.228235  
3828.000000	98.214326  
3827.000000	98.203024  
3826.000000	98.195194  
3825.000000	98.187300  
3824.000000	98.178119  
3823.000000	98.171465  
3822.000000	98.171911  
3821.000000	98.179591  
3820.000000	98.190059  
3819.000000	98.197426  
3818.000000	98.199418  
3817.000000	98.198999  
3816.000000	98.199393  
3815.000000	98.200967  
3814.000000	98.202494  
3813.000000	98.202813  
3812.000000	98.201348  
3811.000000	98.198655  
3810.000000	98.196729  
3809.000000	98.197540  
3808.000000	98.200283  
3807.000000	98.201523  
3806.000000	98.199591  
3805.000000	98.196304  
3804.000000	98.194832  
3803.000000	98.196026  
3802.000000	98.197089  
3801.000000	98.197012  
3800.000000	98.199434  
3799.000000	98.206426  
3798.000000	98.215716  
3797.000000	98.223224  
3796.000000	98.226284  
3795.000000	98.226967  
3794.000000	98.230133  
3793.000000	98.237851  
3792.000000	98.247022  
3791.000000	98.252520  
3790.000000	98.252218  
3789.000000	98.248938  
3788.000000	98.247313  
3787.000000	98.249434  
3786.000000	98.253528  
3785.000000	98.256339  
3784.000000	98.256593  
3783.000000	98.255940  
3782.000000	98.256707  
3781.000000	98.258947  
3780.000000	98.260358  
3779.000000	98.259458  
3778.000000	98.257673  
3777.000000	98.256793  
3776.000000	98.255951  
3775.000000	98.251294  
3774.000000	98.239247  
3773.000000	98.221275  
3772.000000	98.205155  
3771.000000	98.199514  
3770.000000	98.206711  
3769.000000	98.221584  
3768.000000	98.236092  
3767.000000	98.244943  
3766.000000	98.247584  
3765.000000	98.245607  
3764.000000	98.240171  
3763.000000	98.232402  
3762.000000	98.224703  
3761.000000	98.220489  
3760.000000	98.222563  
3759.000000	98.230511  
3758.000000	98.238905  
3757.000000	98.240540  
3756.000000	98.234576  
3755.000000	98.228872  
3754.000000	98.231468  
3753.000000	98.239997  
3752.000000	98.242269  
3751.000000	98.232512  
3750.000000	98.220840  
3749.000000	98.216861  
3748.000000	98.217960  
3747.000000	98.218688  
3746.000000	98.216620  
3745.000000	98.211335  
3744.000000	98.206762  
3743.000000	98.207620  
3742.000000	98.212245  
3741.000000	98.215970  
3740.000000	98.216736  
3739.000000	98.215655  
3738.000000	98.214832  
3737.000000	98.213884  
3736.000000	98.211501  
3735.000000	98.211177  
3734.000000	98.219695  
3733.000000	98.236823  
3732.000000	98.252229  
3731.000000	98.255429  
3730.000000	98.245952  
3729.000000	98.233799  
3728.000000	98.230570  
3727.000000	98.239494  
3726.000000	98.253182  
3725.000000	98.261776  
3724.000000	98.261398  
3723.000000	98.254548  
3722.000000	98.246835  
3721.000000	98.243210  
3720.000000	98.245158  
3719.000000	98.251491  
3718.000000	98.260586  
3717.000000	98.270866  
3716.000000	98.281444  
3715.000000	98.290218  
3714.000000	98.292497  
3713.000000	98.283694  
3712.000000	98.266825  
3711.000000	98.253990  
3710.000000	98.253856  
3709.000000	98.263269  
3708.000000	98.272498  
3707.000000	98.275381  
3706.000000	98.272529  
3705.000000	98.269168  
3704.000000	98.269175  
3703.000000	98.271149  
3702.000000	98.271338  
3701.000000	98.270232  
3700.000000	98.272662  
3699.000000	98.281250  
3698.000000	98.293463  
3697.000000	98.303729  
3696.000000	98.309221  
3695.000000	98.311207  
3694.000000	98.311038  
3693.000000	98.306464  
3692.000000	98.295585  
3691.000000	98.281565  
3690.000000	98.270286  
3689.000000	98.265263  
3688.000000	98.266098  
3687.000000	98.272522  
3686.000000	98.286365  
3685.000000	98.307269  
3684.000000	98.327238  
3683.000000	98.336137  
3682.000000	98.332166  
3681.000000	98.323184  
3680.000000	98.316868  
3679.000000	98.313516  
3678.000000	98.308887  
3677.000000	98.298263  
3676.000000	98.279855  
3675.000000	98.260765  
3674.000000	98.250547  
3673.000000	98.250076  
3672.000000	98.256200  
3671.000000	98.265726  
3670.000000	98.276412  
3669.000000	98.291028  
3668.000000	98.312637  
3667.000000	98.337146  
3666.000000	98.357833  
3665.000000	98.371381  
3664.000000	98.378357  
3663.000000	98.381129  
3662.000000	98.381128  
3661.000000	98.378425  
3660.000000	98.373047  
3659.000000	98.365979  
3658.000000	98.358845  
3657.000000	98.354060  
3656.000000	98.354863  
3655.000000	98.363084  
3654.000000	98.377120  
3653.000000	98.393711  
3652.000000	98.407939  
3651.000000	98.410944  
3650.000000	98.395966  
3649.000000	98.371013  
3648.000000	98.354528  
3647.000000	98.355535  
3646.000000	98.368932  
3645.000000	98.385628  
3644.000000	98.400384  
3643.000000	98.412794  
3642.000000	98.423649  
3641.000000	98.432021  
3640.000000	98.435669  
3639.000000	98.432913  
3638.000000	98.423605  
3637.000000	98.409931  
3636.000000	98.396834  
3635.000000	98.390406  
3634.000000	98.393547  
3633.000000	98.404120  
3632.000000	98.417970  
3631.000000	98.431496  
3630.000000	98.440636  
3629.000000	98.442864  
3628.000000	98.442358  
3627.000000	98.443636  
3626.000000	98.445175  
3625.000000	98.445027  
3624.000000	98.443791  
3623.000000	98.443608  
3622.000000	98.447430  
3621.000000	98.456430  
3620.000000	98.467757  
3619.000000	98.477872  
3618.000000	98.486161  
3617.000000	98.492352  
3616.000000	98.494229  
3615.000000	98.489224  
3614.000000	98.477821  
3613.000000	98.466262  
3612.000000	98.464108  
3611.000000	98.476448  
3610.000000	98.498727  
3609.000000	98.519392  
3608.000000	98.528103  
3607.000000	98.524970  
3606.000000	98.519770  
3605.000000	98.523215  
3604.000000	98.539056  
3603.000000	98.561718  
3602.000000	98.581595  
3601.000000	98.593067  
3600.000000	98.598762  
3599.000000	98.605136  
3598.000000	98.615090  
3597.000000	98.625588  
3596.000000	98.632467  
3595.000000	98.634692  
3594.000000	98.634689  
3593.000000	98.635176  
3592.000000	98.636771  
3591.000000	98.638886  
3590.000000	98.641292  
3589.000000	98.644074  
3588.000000	98.647246  
3587.000000	98.652642  
3586.000000	98.662667  
3585.000000	98.677060  
3584.000000	98.692664  
3583.000000	98.705840  
3582.000000	98.714664  
3581.000000	98.720083  
3580.000000	98.725642  
3579.000000	98.733830  
3578.000000	98.742768  
3577.000000	98.746082  
3576.000000	98.737855  
3575.000000	98.717605  
3574.000000	98.691549  
3573.000000	98.669129  
3572.000000	98.658794  
3571.000000	98.665657  
3570.000000	98.690227  
3569.000000	98.725513  
3568.000000	98.756578  
3567.000000	98.770987  
3566.000000	98.771660  
3565.000000	98.772709  
3564.000000	98.784364  
3563.000000	98.805958  
3562.000000	98.829646  
3561.000000	98.848370  
3560.000000	98.860704  
3559.000000	98.869579  
3558.000000	98.877989  
3557.000000	98.886484  
3556.000000	98.894089  
3555.000000	98.901014  
3554.000000	98.910357  
3553.000000	98.926502  
3552.000000	98.950897  
3551.000000	98.979571  
3550.000000	99.005569  
3549.000000	99.022934  
3548.000000	99.028310  
3547.000000	99.021703  
3546.000000	99.008626  
3545.000000	98.999444  
3544.000000	99.001909  
3543.000000	99.013611  
3542.000000	99.023957  
3541.000000	99.024718  
3540.000000	99.017520  
3539.000000	99.010959  
3538.000000	99.011611  
3537.000000	99.019037  
3536.000000	99.028219  
3535.000000	99.034954  
3534.000000	99.039103  
3533.000000	99.044724  
3532.000000	99.057307  
3531.000000	99.079060  
3530.000000	99.105144  
3529.000000	99.125456  
3528.000000	99.131896  
3527.000000	99.125201  
3526.000000	99.114760  
3525.000000	99.111448  
3524.000000	99.119797  
3523.000000	99.135777  
3522.000000	99.151830  
3521.000000	99.163404  
3520.000000	99.170568  
3519.000000	99.175046  
3518.000000	99.178328  
3517.000000	99.182714  
3516.000000	99.191383  
3515.000000	99.205011  
3514.000000	99.219477  
3513.000000	99.229416  
3512.000000	99.233929  
3511.000000	99.236953  
3510.000000	99.241747  
3509.000000	99.246742  
3508.000000	99.247936  
3507.000000	99.244126  
3506.000000	99.238077  
3505.000000	99.232777  
3504.000000	99.227876  
3503.000000	99.220830  
3502.000000	99.211334  
3501.000000	99.203082  
3500.000000	99.200613  
3499.000000	99.205276  
3498.000000	99.215078  
3497.000000	99.227553  
3496.000000	99.241085  
3495.000000	99.253129  
3494.000000	99.259612  
3493.000000	99.258203  
3492.000000	99.251305  
3491.000000	99.244040  
3490.000000	99.239946  
3489.000000	99.240081  
3488.000000	99.245484  
3487.000000	99.257623  
3486.000000	99.275222  
3485.000000	99.292326  
3484.000000	99.301241  
3483.000000	99.297531  
3482.000000	99.282795  
3481.000000	99.263744  
3480.000000	99.248877  
3479.000000	99.244316  
3478.000000	99.250216  
3477.000000	99.260248  
3476.000000	99.265952  
3475.000000	99.263681  
3474.000000	99.258003  
3473.000000	99.257442  
3472.000000	99.266495  
3471.000000	99.281414  
3470.000000	99.293472  
3469.000000	99.296496  
3468.000000	99.291935  
3467.000000	99.287623  
3466.000000	99.291137  
3465.000000	99.302953  
3464.000000	99.315577  
3463.000000	99.320663  
3462.000000	99.318722  
3461.000000	99.320633  
3460.000000	99.337261  
3459.000000	99.367235  
3458.000000	99.396471  
3457.000000	99.410543  
3456.000000	99.406543  
3455.000000	99.393296  
3454.000000	99.382558  
3453.000000	99.381246  
3452.000000	99.389637  
3451.000000	99.402733  
3450.000000	99.412562  
3449.000000	99.412537  
3448.000000	99.403017  
3447.000000	99.392531  
3446.000000	99.390658  
3445.000000	99.398356  
3444.000000	99.406682  
3443.000000	99.405607  
3442.000000	99.393461  
3441.000000	99.377316  
3440.000000	99.364964  
3439.000000	99.358623  
3438.000000	99.356193  
3437.000000	99.355532  
3436.000000	99.355314  
3435.000000	99.353399  
3434.000000	99.347800  
3433.000000	99.339950  
3432.000000	99.335396  
3431.000000	99.340118  
3430.000000	99.355932  
3429.000000	99.378663  
3428.000000	99.399849  
3427.000000	99.411736  
3426.000000	99.413095  
3425.000000	99.410195  
3424.000000	99.410182  
3423.000000	99.413102  
3422.000000	99.411949  
3421.000000	99.400918  
3420.000000	99.381823  
3419.000000	99.362528  
3418.000000	99.351577  
3417.000000	99.354422  
3416.000000	99.370600  
3415.000000	99.392181  
3414.000000	99.407845  
3413.000000	99.412282  
3412.000000	99.410850  
3411.000000	99.412532  
3410.000000	99.419447  
3409.000000	99.425900  
3408.000000	99.426671  
3407.000000	99.422438  
3406.000000	99.415839  
3405.000000	99.405550  
3404.000000	99.387700  
3403.000000	99.362732  
3402.000000	99.338310  
3401.000000	99.323759  
3400.000000	99.322013  
3399.000000	99.327703  
3398.000000	99.332225  
3397.000000	99.329507  
3396.000000	99.317527  
3395.000000	99.297754  
3394.000000	99.275824  
3393.000000	99.261184  
3392.000000	99.261815  
3391.000000	99.277601  
3390.000000	99.300312  
3389.000000	99.320408  
3388.000000	99.332838  
3387.000000	99.337429  
3386.000000	99.337125  
3385.000000	99.336443  
3384.000000	99.338266  
3383.000000	99.340034  
3382.000000	99.335349  
3381.000000	99.321671  
3380.000000	99.304995  
3379.000000	99.294876  
3378.000000	99.295375  
3377.000000	99.302194  
3376.000000	99.307320  
3375.000000	99.305058  
3374.000000	99.295142  
3373.000000	99.282596  
3372.000000	99.274320  
3371.000000	99.273889  
3370.000000	99.279473  
3369.000000	99.287316  
3368.000000	99.295976  
3367.000000	99.305559  
3366.000000	99.314049  
3365.000000	99.316968  
3364.000000	99.311417  
3363.000000	99.299662  
3362.000000	99.288622  
3361.000000	99.285496  
3360.000000	99.292138  
3359.000000	99.302378  
3358.000000	99.306210  
3357.000000	99.298608  
3356.000000	99.283816  
3355.000000	99.269900  
3354.000000	99.260062  
3353.000000	99.251205  
3352.000000	99.240069  
3351.000000	99.228345  
3350.000000	99.221384  
3349.000000	99.223164  
3348.000000	99.232639  
3347.000000	99.244200  
3346.000000	99.252290  
3345.000000	99.256723  
3344.000000	99.263072  
3343.000000	99.276162  
3342.000000	99.292758  
3341.000000	99.301730  
3340.000000	99.292302  
3339.000000	99.263189  
3338.000000	99.224775  
3337.000000	99.192495  
3336.000000	99.176306  
3335.000000	99.174771  
3334.000000	99.178740  
3333.000000	99.179642  
3332.000000	99.173378  
3331.000000	99.158956  
3330.000000	99.138878  
3329.000000	99.122118  
3328.000000	99.120817  
3327.000000	99.138488  
3326.000000	99.163597  
3325.000000	99.179709  
3324.000000	99.181068  
3323.000000	99.174218  
3322.000000	99.165697  
3321.000000	99.154559  
3320.000000	99.138266  
3319.000000	99.119818  
3318.000000	99.104331  
3317.000000	99.091384  
3316.000000	99.075917  
3315.000000	99.056816  
3314.000000	99.040844  
3313.000000	99.035787  
3312.000000	99.040906  
3311.000000	99.046122  
3310.000000	99.041370  
3309.000000	99.026032  
3308.000000	99.007982  
3307.000000	98.993768  
3306.000000	98.981874  
3305.000000	98.966788  
3304.000000	98.947560  
3303.000000	98.929241  
3302.000000	98.916106  
3301.000000	98.906235  
3300.000000	98.894062  
3299.000000	98.876685  
3298.000000	98.856377  
3297.000000	98.837811  
3296.000000	98.823913  
3295.000000	98.813872  
3294.000000	98.804045  
3293.000000	98.790794  
3292.000000	98.773284  
3291.000000	98.754045  
3290.000000	98.736815  
3289.000000	98.723733  
3288.000000	98.714393  
3287.000000	98.707185  
3286.000000	98.700858  
3285.000000	98.694036  
3284.000000	98.683514  
3283.000000	98.665004  
3282.000000	98.637490  
3281.000000	98.606523  
3280.000000	98.581020  
3279.000000	98.565861  
3278.000000	98.558554  
3277.000000	98.553308  
3276.000000	98.547026  
3275.000000	98.540937  
3274.000000	98.537858  
3273.000000	98.538626  
3272.000000	98.539967  
3271.000000	98.535497  
3270.000000	98.520778  
3269.000000	98.498300  
3268.000000	98.475565  
3267.000000	98.457080  
3266.000000	98.440350  
3265.000000	98.421271  
3264.000000	98.401154  
3263.000000	98.385705  
3262.000000	98.378268  
3261.000000	98.376638  
3260.000000	98.375287  
3259.000000	98.368144  
3258.000000	98.350458  
3257.000000	98.321678  
3256.000000	98.287069  
3255.000000	98.253824  
3254.000000	98.224827  
3253.000000	98.198107  
3252.000000	98.172475  
3251.000000	98.150715  
3250.000000	98.135696  
3249.000000	98.125340  
3248.000000	98.113330  
3247.000000	98.094107  
3246.000000	98.066286  
3245.000000	98.032554  
3244.000000	97.998370  
3243.000000	97.970559  
3242.000000	97.954302  
3241.000000	97.948542  
3240.000000	97.944040  
3239.000000	97.928790  
3238.000000	97.898385  
3237.000000	97.860939  
3236.000000	97.829537  
3235.000000	97.809286  
3234.000000	97.793530  
3233.000000	97.772752  
3232.000000	97.744309  
3231.000000	97.712077  
3230.000000	97.679697  
3229.000000	97.647668  
3228.000000	97.615950  
3227.000000	97.586182  
3226.000000	97.561015  
3225.000000	97.542943  
3224.000000	97.533320  
3223.000000	97.530439  
3222.000000	97.528657  
3221.000000	97.521505  
