PE IR                   SPECTRUM    ASCII       PEDS        1.60        
  -1
~SP.SP
18/03/23
17:37:13.00
18/03/23
17:37:13.00
pili
NI
650.000000
4









SPECTRUM 100,CPU32 MAIN 00.02.8200 12-DECEMBER-2006 10:00:00
MIR TGS
MIR
OPTKBR
78890
0.200000

4.000000
STRONG
RATIO
SPECTRUM
MAGNITUDE
UNIVERSAL ATR
DOUBLE

COMBINED


0


#HDR
-1
-1
#GR
CM-1
%T
0.00002384185791015625
0.0
4000.000000
-1.000000
3351
8
101.075823
57.206980
#DATA
4000.000000	98.393303  
3999.000000	98.390635  
3998.000000	98.387980  
3997.000000	98.385284  
3996.000000	98.388840  
3995.000000	98.396834  
3994.000000	98.406501  
3993.000000	98.415978  
3992.000000	98.423563  
3991.000000	98.426679  
3990.000000	98.423318  
3989.000000	98.414143  
3988.000000	98.402399  
3987.000000	98.391778  
3986.000000	98.384629  
3985.000000	98.381352  
3984.000000	98.380304  
3983.000000	98.378619  
3982.000000	98.374453  
3981.000000	98.369043  
3980.000000	98.365987  
3979.000000	98.367871  
3978.000000	98.373794  
3977.000000	98.380373  
3976.000000	98.384978  
3975.000000	98.387626  
3974.000000	98.389781  
3973.000000	98.391757  
3972.000000	98.392011  
3971.000000	98.389348  
3970.000000	98.385400  
3969.000000	98.384016  
3968.000000	98.387672  
3967.000000	98.394971  
3966.000000	98.401816  
3965.000000	98.404387  
3964.000000	98.400653  
3963.000000	98.390056  
3962.000000	98.373599  
3961.000000	98.354938  
3960.000000	98.340207  
3959.000000	98.334834  
3958.000000	98.339422  
3957.000000	98.349068  
3956.000000	98.357381  
3955.000000	98.361790  
3954.000000	98.364773  
3953.000000	98.369790  
3952.000000	98.376893  
3951.000000	98.383025  
3950.000000	98.386416  
3949.000000	98.389019  
3948.000000	98.393540  
3947.000000	98.399296  
3946.000000	98.402365  
3945.000000	98.399480  
3944.000000	98.391334  
3943.000000	98.382164  
3942.000000	98.376407  
3941.000000	98.375843  
3940.000000	98.379613  
3939.000000	98.385543  
3938.000000	98.391450  
3937.000000	98.395995  
3936.000000	98.398224  
3935.000000	98.396554  
3934.000000	98.389087  
3933.000000	98.375699  
3932.000000	98.359744  
3931.000000	98.346634  
3930.000000	98.340552  
3929.000000	98.342074  
3928.000000	98.348121  
3927.000000	98.354236  
3926.000000	98.357517  
3925.000000	98.358384  
3924.000000	98.359769  
3923.000000	98.363994  
3922.000000	98.370037  
3921.000000	98.373902  
3920.000000	98.372314  
3919.000000	98.366312  
3918.000000	98.360289  
3917.000000	98.357481  
3916.000000	98.357725  
3915.000000	98.359719  
3914.000000	98.363393  
3913.000000	98.369039  
3912.000000	98.375593  
3911.000000	98.380925  
3910.000000	98.383628  
3909.000000	98.384064  
3908.000000	98.383219  
3907.000000	98.381333  
3906.000000	98.378411  
3905.000000	98.375683  
3904.000000	98.375843  
3903.000000	98.380570  
3902.000000	98.388249  
3901.000000	98.394626  
3900.000000	98.396156  
3899.000000	98.393212  
3898.000000	98.389548  
3897.000000	98.388472  
3896.000000	98.390338  
3895.000000	98.393757  
3894.000000	98.398448  
3893.000000	98.405811  
3892.000000	98.415040  
3891.000000	98.420642  
3890.000000	98.417635  
3889.000000	98.407779  
3888.000000	98.398464  
3887.000000	98.395653  
3886.000000	98.397902  
3885.000000	98.398135  
3884.000000	98.393979  
3883.000000	98.392477  
3882.000000	98.402045  
3881.000000	98.421941  
3880.000000	98.440628  
3879.000000	98.446111  
3878.000000	98.436845  
3877.000000	98.420670  
3876.000000	98.406708  
3875.000000	98.399493  
3874.000000	98.398345  
3873.000000	98.400989  
3872.000000	98.406205  
3871.000000	98.412372  
3870.000000	98.415779  
3869.000000	98.413432  
3868.000000	98.407865  
3867.000000	98.405392  
3866.000000	98.408945  
3865.000000	98.414593  
3864.000000	98.415950  
3863.000000	98.411940  
3862.000000	98.408308  
3861.000000	98.410571  
3860.000000	98.417149  
3859.000000	98.420644  
3858.000000	98.414250  
3857.000000	98.397506  
3856.000000	98.378162  
3855.000000	98.368153  
3854.000000	98.369959  
3853.000000	98.369620  
3852.000000	98.358888  
3851.000000	98.346850  
3850.000000	98.346915  
3849.000000	98.366625  
3848.000000	98.400199  
3847.000000	98.433101  
3846.000000	98.454171  
3845.000000	98.460437  
3844.000000	98.454884  
3843.000000	98.442417  
3842.000000	98.427840  
3841.000000	98.415302  
3840.000000	98.408008  
3839.000000	98.407950  
3838.000000	98.414968  
3837.000000	98.427022  
3836.000000	98.441916  
3835.000000	98.457266  
3834.000000	98.469289  
3833.000000	98.473221  
3832.000000	98.466599  
3831.000000	98.452607  
3830.000000	98.439440  
3829.000000	98.436073  
3828.000000	98.446306  
3827.000000	98.463797  
3826.000000	98.474093  
3825.000000	98.465741  
3824.000000	98.440625  
3823.000000	98.415579  
3822.000000	98.411235  
3821.000000	98.431227  
3820.000000	98.457236  
3819.000000	98.468607  
3818.000000	98.460234  
3817.000000	98.443971  
3816.000000	98.434340  
3815.000000	98.434098  
3814.000000	98.437854  
3813.000000	98.442053  
3812.000000	98.446386  
3811.000000	98.450223  
3810.000000	98.452065  
3809.000000	98.452629  
3808.000000	98.454406  
3807.000000	98.457506  
3806.000000	98.459159  
3805.000000	98.457536  
3804.000000	98.453837  
3803.000000	98.450918  
3802.000000	98.449654  
3801.000000	98.448262  
3800.000000	98.446416  
3799.000000	98.446591  
3798.000000	98.451562  
3797.000000	98.460546  
3796.000000	98.467116  
3795.000000	98.465581  
3794.000000	98.458238  
3793.000000	98.452798  
3792.000000	98.454725  
3791.000000	98.462088  
3790.000000	98.467318  
3789.000000	98.464632  
3788.000000	98.455143  
3787.000000	98.445102  
3786.000000	98.439748  
3785.000000	98.438725  
3784.000000	98.438226  
3783.000000	98.437612  
3782.000000	98.442083  
3781.000000	98.457454  
3780.000000	98.481518  
3779.000000	98.502474  
3778.000000	98.508363  
3777.000000	98.496250  
3776.000000	98.471745  
3775.000000	98.442982  
3774.000000	98.416394  
3773.000000	98.397061  
3772.000000	98.390032  
3771.000000	98.397435  
3770.000000	98.414640  
3769.000000	98.432995  
3768.000000	98.446937  
3767.000000	98.455730  
3766.000000	98.459383  
3765.000000	98.456154  
3764.000000	98.445915  
3763.000000	98.434162  
3762.000000	98.429543  
3761.000000	98.437083  
3760.000000	98.453848  
3759.000000	98.471089  
3758.000000	98.480408  
3757.000000	98.478615  
3756.000000	98.468234  
3755.000000	98.454790  
3754.000000	98.443251  
3753.000000	98.435446  
3752.000000	98.429869  
3751.000000	98.422559  
3750.000000	98.410154  
3749.000000	98.392657  
3748.000000	98.373138  
3747.000000	98.359011  
3746.000000	98.358853  
3745.000000	98.370545  
3744.000000	98.376961  
3743.000000	98.365966  
3742.000000	98.348036  
3741.000000	98.341409  
3740.000000	98.350117  
3739.000000	98.361816  
3738.000000	98.362015  
3737.000000	98.348973  
3736.000000	98.336364  
3735.000000	98.341517  
3734.000000	98.369004  
3733.000000	98.405223  
3732.000000	98.428392  
3731.000000	98.424306  
3730.000000	98.396222  
3729.000000	98.361932  
3728.000000	98.340581  
3727.000000	98.339524  
3726.000000	98.350583  
3725.000000	98.359944  
3724.000000	98.361311  
3723.000000	98.358324  
3722.000000	98.358944  
3721.000000	98.369879  
3720.000000	98.393224  
3719.000000	98.424873  
3718.000000	98.455374  
3717.000000	98.475108  
3716.000000	98.480374  
3715.000000	98.474247  
3714.000000	98.461973  
3713.000000	98.447167  
3712.000000	98.432686  
3711.000000	98.424027  
3710.000000	98.426606  
3709.000000	98.439128  
3708.000000	98.454152  
3707.000000	98.464964  
3706.000000	98.469646  
3705.000000	98.469149  
3704.000000	98.464651  
3703.000000	98.456378  
3702.000000	98.445846  
3701.000000	98.436889  
3700.000000	98.433387  
3699.000000	98.436817  
3698.000000	98.446141  
3697.000000	98.457598  
3696.000000	98.465074  
3695.000000	98.463779  
3694.000000	98.454932  
3693.000000	98.447673  
3692.000000	98.453999  
3691.000000	98.478752  
3690.000000	98.510417  
3689.000000	98.527187  
3688.000000	98.517353  
3687.000000	98.490187  
3686.000000	98.465756  
3685.000000	98.457580  
3684.000000	98.464147  
3683.000000	98.474966  
3682.000000	98.483740  
3681.000000	98.491630  
3680.000000	98.500593  
3679.000000	98.508246  
3678.000000	98.511079  
3677.000000	98.509559  
3676.000000	98.507492  
3675.000000	98.506484  
3674.000000	98.505377  
3673.000000	98.504480  
3672.000000	98.507595  
3671.000000	98.518174  
3670.000000	98.531047  
3669.000000	98.536201  
3668.000000	98.531332  
3667.000000	98.523498  
3666.000000	98.522601  
3665.000000	98.534783  
3664.000000	98.557342  
3663.000000	98.580577  
3662.000000	98.594834  
3661.000000	98.597080  
3660.000000	98.591250  
3659.000000	98.582548  
3658.000000	98.572755  
3657.000000	98.560379  
3656.000000	98.544891  
3655.000000	98.529359  
3654.000000	98.518897  
3653.000000	98.517431  
3652.000000	98.525254  
3651.000000	98.538552  
3650.000000	98.551425  
3649.000000	98.559858  
3648.000000	98.564315  
3647.000000	98.567465  
3646.000000	98.571868  
3645.000000	98.579711  
3644.000000	98.591194  
3643.000000	98.603567  
3642.000000	98.612139  
3641.000000	98.612845  
3640.000000	98.605058  
3639.000000	98.592020  
3638.000000	98.577996  
3637.000000	98.565256  
3636.000000	98.554118  
3635.000000	98.544609  
3634.000000	98.537283  
3633.000000	98.532593  
3632.000000	98.530616  
3631.000000	98.531238  
3630.000000	98.533635  
3629.000000	98.534978  
3628.000000	98.533432  
3627.000000	98.534595  
3626.000000	98.547677  
3625.000000	98.575013  
3624.000000	98.607756  
3623.000000	98.632830  
3622.000000	98.645248  
3621.000000	98.651354  
3620.000000	98.659328  
3619.000000	98.667990  
3618.000000	98.668638  
3617.000000	98.657472  
3616.000000	98.640492  
3615.000000	98.626357  
3614.000000	98.617571  
3613.000000	98.609458  
3612.000000	98.598021  
3611.000000	98.586866  
3610.000000	98.584307  
3609.000000	98.594298  
3608.000000	98.611188  
3607.000000	98.625806  
3606.000000	98.635605  
3605.000000	98.645227  
3604.000000	98.659226  
3603.000000	98.677045  
3602.000000	98.695099  
3601.000000	98.711474  
3600.000000	98.727096  
3599.000000	98.742486  
3598.000000	98.755539  
3597.000000	98.764030  
3596.000000	98.768401  
3595.000000	98.770446  
3594.000000	98.769994  
3593.000000	98.765190  
3592.000000	98.755562  
3591.000000	98.743824  
3590.000000	98.734590  
3589.000000	98.732253  
3588.000000	98.737517  
3587.000000	98.746528  
3586.000000	98.756856  
3585.000000	98.771428  
3584.000000	98.793421  
3583.000000	98.819796  
3582.000000	98.842685  
3581.000000	98.855759  
3580.000000	98.858426  
3579.000000	98.854247  
3578.000000	98.847001  
3577.000000	98.839736  
3576.000000	98.835703  
3575.000000	98.837308  
3574.000000	98.842945  
3573.000000	98.847721  
3572.000000	98.848180  
3571.000000	98.846124  
3570.000000	98.846845  
3569.000000	98.854262  
3568.000000	98.867034  
3567.000000	98.879676  
3566.000000	98.889181  
3565.000000	98.899728  
3564.000000	98.917124  
3563.000000	98.940052  
3562.000000	98.959675  
3561.000000	98.968044  
3560.000000	98.966018  
3559.000000	98.962190  
3558.000000	98.963888  
3557.000000	98.970691  
3556.000000	98.977634  
3555.000000	98.983081  
3554.000000	98.991078  
3553.000000	99.006180  
3552.000000	99.028265  
3551.000000	99.053413  
3550.000000	99.077612  
3549.000000	99.097309  
3548.000000	99.108330  
3547.000000	99.107778  
3546.000000	99.098193  
3545.000000	99.088258  
3544.000000	99.086897  
3543.000000	99.095850  
3542.000000	99.108524  
3541.000000	99.116850  
3540.000000	99.119202  
3539.000000	99.121383  
3538.000000	99.129843  
3537.000000	99.144771  
3536.000000	99.160490  
3535.000000	99.172119  
3534.000000	99.179957  
3533.000000	99.187030  
3532.000000	99.194521  
3531.000000	99.200901  
3530.000000	99.204364  
3529.000000	99.204782  
3528.000000	99.203841  
3527.000000	99.204632  
3526.000000	99.210527  
3525.000000	99.222573  
3524.000000	99.237362  
3523.000000	99.249135  
3522.000000	99.255114  
3521.000000	99.257629  
3520.000000	99.260279  
3519.000000	99.263856  
3518.000000	99.267656  
3517.000000	99.273370  
3516.000000	99.284904  
3515.000000	99.303362  
3514.000000	99.323768  
3513.000000	99.338421  
3512.000000	99.343204  
3511.000000	99.339822  
3510.000000	99.332352  
3509.000000	99.323131  
3508.000000	99.312912  
3507.000000	99.304004  
3506.000000	99.301193  
3505.000000	99.308208  
3504.000000	99.322888  
3503.000000	99.336654  
3502.000000	99.340612  
3501.000000	99.332774  
3500.000000	99.319353  
3499.000000	99.310168  
3498.000000	99.313301  
3497.000000	99.331445  
3496.000000	99.359531  
3495.000000	99.385552  
3494.000000	99.396791  
3493.000000	99.388417  
3492.000000	99.366671  
3491.000000	99.343528  
3490.000000	99.328540  
3489.000000	99.325097  
3488.000000	99.331908  
3487.000000	99.345394  
3486.000000	99.361016  
3485.000000	99.374870  
3484.000000	99.385125  
3483.000000	99.391318  
3482.000000	99.392454  
3481.000000	99.387480  
3480.000000	99.378217  
3479.000000	99.369818  
3478.000000	99.366392  
3477.000000	99.366771  
3476.000000	99.366342  
3475.000000	99.363216  
3474.000000	99.360987  
3473.000000	99.364352  
3472.000000	99.373032  
3471.000000	99.381297  
3470.000000	99.383549  
3469.000000	99.379805  
3468.000000	99.375821  
3467.000000	99.378397  
3466.000000	99.390034  
3465.000000	99.406797  
3464.000000	99.420618  
3463.000000	99.425163  
3462.000000	99.421884  
3461.000000	99.420575  
3460.000000	99.431962  
3459.000000	99.457732  
3458.000000	99.487653  
3457.000000	99.507695  
3456.000000	99.511846  
3455.000000	99.506559  
3454.000000	99.504001  
3453.000000	99.511112  
3452.000000	99.524602  
3451.000000	99.534781  
3450.000000	99.533606  
3449.000000	99.520622  
3448.000000	99.503300  
3447.000000	99.491744  
3446.000000	99.490910  
3445.000000	99.496809  
3444.000000	99.500668  
3443.000000	99.497076  
3442.000000	99.488211  
3441.000000	99.480352  
3440.000000	99.477324  
3439.000000	99.478225  
3438.000000	99.479883  
3437.000000	99.479064  
3436.000000	99.472808  
3435.000000	99.459884  
3434.000000	99.443519  
3433.000000	99.430847  
3432.000000	99.427667  
3431.000000	99.434265  
3430.000000	99.447046  
3429.000000	99.462262  
3428.000000	99.476380  
3427.000000	99.484957  
3426.000000	99.484859  
3425.000000	99.477941  
3424.000000	99.470028  
3423.000000	99.465410  
3422.000000	99.463787  
3421.000000	99.462828  
3420.000000	99.461715  
3419.000000	99.461224  
3418.000000	99.461862  
3417.000000	99.462760  
3416.000000	99.461120  
3415.000000	99.452543  
3414.000000	99.434500  
3413.000000	99.411508  
3412.000000	99.394977  
3411.000000	99.394452  
3410.000000	99.408094  
3409.000000	99.423256  
3408.000000	99.427447  
3407.000000	99.418853  
3406.000000	99.406213  
3405.000000	99.399164  
3404.000000	99.399175  
3403.000000	99.399419  
3402.000000	99.392729  
3401.000000	99.378934  
3400.000000	99.364008  
3399.000000	99.352786  
3398.000000	99.343740  
3397.000000	99.331191  
3396.000000	99.312112  
3395.000000	99.290526  
3394.000000	99.275551  
3393.000000	99.274917  
3392.000000	99.288975  
3391.000000	99.310089  
3390.000000	99.328027  
3389.000000	99.336640  
3388.000000	99.336684  
3387.000000	99.333986  
3386.000000	99.335130  
3385.000000	99.342272  
3384.000000	99.349665  
3383.000000	99.346500  
3382.000000	99.326835  
3381.000000	99.297646  
3380.000000	99.274798  
3379.000000	99.269448  
3378.000000	99.279074  
3377.000000	99.291949  
3376.000000	99.298147  
3375.000000	99.295593  
3374.000000	99.288607  
3373.000000	99.283674  
3372.000000	99.285291  
3371.000000	99.292563  
3370.000000	99.299271  
3369.000000	99.299078  
3368.000000	99.291608  
3367.000000	99.282852  
3366.000000	99.279488  
3365.000000	99.282933  
3364.000000	99.288493  
3363.000000	99.289967  
3362.000000	99.285763  
3361.000000	99.280746  
3360.000000	99.280878  
3359.000000	99.285498  
3358.000000	99.286480  
3357.000000	99.276513  
3356.000000	99.257111  
3355.000000	99.236862  
3354.000000	99.222643  
3353.000000	99.214713  
3352.000000	99.209908  
3351.000000	99.206942  
3350.000000	99.207420  
3349.000000	99.212809  
3348.000000	99.221582  
3347.000000	99.229360  
3346.000000	99.231910  
3345.000000	99.228612  
3344.000000	99.223216  
3343.000000	99.220606  
3342.000000	99.222056  
3341.000000	99.223246  
3340.000000	99.217249  
3339.000000	99.200814  
3338.000000	99.178697  
3337.000000	99.160933  
3336.000000	99.154050  
3335.000000	99.154849  
3334.000000	99.154039  
3333.000000	99.145194  
3332.000000	99.128282  
3331.000000	99.105923  
3330.000000	99.080982  
3329.000000	99.059233  
3328.000000	99.049256  
3327.000000	99.054640  
3326.000000	99.067932  
3325.000000	99.076687  
3324.000000	99.075266  
3323.000000	99.067557  
3322.000000	99.058945  
3321.000000	99.050067  
3320.000000	99.039236  
3319.000000	99.026661  
3318.000000	99.013534  
3317.000000	98.999442  
3316.000000	98.983834  
3315.000000	98.969308  
3314.000000	98.960770  
3313.000000	98.960383  
3312.000000	98.964015  
3311.000000	98.963171  
3310.000000	98.950906  
3309.000000	98.926987  
3308.000000	98.897898  
3307.000000	98.871265  
3306.000000	98.849580  
3305.000000	98.829295  
3304.000000	98.805946  
3303.000000	98.779691  
3302.000000	98.755673  
3301.000000	98.739116  
3300.000000	98.729883  
3299.000000	98.721757  
3298.000000	98.707717  
3297.000000	98.686760  
3296.000000	98.665152  
3295.000000	98.649858  
3294.000000	98.640793  
3293.000000	98.630643  
3292.000000	98.612600  
3291.000000	98.587259  
3290.000000	98.561059  
3289.000000	98.538872  
3288.000000	98.519846  
3287.000000	98.500690  
3286.000000	98.481084  
3285.000000	98.463478  
3284.000000	98.447759  
3283.000000	98.429443  
3282.000000	98.405877  
3281.000000	98.382674  
3280.000000	98.369871  
3279.000000	98.370560  
3278.000000	98.376329  
3277.000000	98.376070  
3276.000000	98.367389  
3275.000000	98.356879  
3274.000000	98.350316  
3273.000000	98.345398  
3272.000000	98.333969  
3271.000000	98.309095  
3270.000000	98.270134  
3269.000000	98.223657  
3268.000000	98.180617  
3267.000000	98.150592  
3266.000000	98.136216  
3265.000000	98.132118  
3264.000000	98.129133  
3263.000000	98.120104  
3262.000000	98.103421  
3261.000000	98.083101  
3260.000000	98.065523  
3259.000000	98.054074  
3258.000000	98.045638  
3257.000000	98.032752  
3256.000000	98.009954  
3255.000000	97.978063  
3254.000000	97.942467  
3253.000000	97.908265  
3252.000000	97.877814  
3251.000000	97.852298  
3250.000000	97.833610  
3249.000000	97.822697  
3248.000000	97.815653  
3247.000000	97.803361  
3246.000000	97.777892  
3245.000000	97.740531  
3244.000000	97.702113  
3243.000000	97.673592  
3242.000000	97.655913  
3241.000000	97.639406  
3240.000000	97.612896  
3239.000000	97.573890  
3238.000000	97.531083  
3237.000000	97.497395  
3236.000000	97.479393  
3235.000000	97.472147  
3234.000000	97.463960  
3233.000000	97.445767  
3232.000000	97.415823  
3231.000000	97.377117  
3230.000000	97.333737  
3229.000000	97.290743  
3228.000000	97.254240  
3227.000000	97.228046  
3226.000000	97.210697  
3225.000000	97.197661  
3224.000000	97.185804  
3223.000000	97.173734  
3222.000000	97.158625  
3221.000000	97.135862  
