PE IR                   SPECTRUM    ASCII       PEDS        1.60        
  -1
~SP.SP
18/04/18
12:50:18.00
18/04/18
12:50:18.00
Claudia

650.000000
16









SPECTRUM 100,CPU32 MAIN 00.02.8200 12-DECEMBER-2006 10:00:00
MIR TGS
MIR
OPTKBR
78890
0.200000

4.000000
STRONG
RATIO
SPECTRUM
MAGNITUDE
UNIVERSAL ATR
DOUBLE

COMBINED


0


#HDR
-1
-1
#GR
CM-1
%T
0.00002384185791015625
0.0
4000.000000
-1.000000
3351
8
98.136832
26.425214
#DATA
4000.000000	97.952210 
3999.000000	97.949289 
3998.000000	97.947823 
3997.000000	97.949081 
3996.000000	97.953309 
3995.000000	97.960032 
3994.000000	97.968920 
3993.000000	97.978367 
3992.000000	97.985247 
3991.000000	97.987098 
3990.000000	97.984597 
3989.000000	97.981094 
3988.000000	97.979584 
3987.000000	97.980546 
3986.000000	97.982419 
3985.000000	97.983334 
3984.000000	97.982362 
3983.000000	97.979781 
3982.000000	97.976955 
3981.000000	97.975874 
3980.000000	97.977952 
3979.000000	97.982697 
3978.000000	97.987453 
3977.000000	97.988762 
3976.000000	97.984818 
3975.000000	97.976936 
3974.000000	97.968617 
3973.000000	97.962974 
3972.000000	97.960852 
3971.000000	97.961078 
3970.000000	97.961594 
3969.000000	97.960711 
3968.000000	97.958415 
3967.000000	97.956617 
3966.000000	97.957592 
3965.000000	97.961561 
3964.000000	97.966079 
3963.000000	97.968480 
3962.000000	97.968879 
3961.000000	97.970022 
3960.000000	97.974095 
3959.000000	97.980721 
3958.000000	97.987694 
3957.000000	97.993105 
3956.000000	97.996811 
3955.000000	97.999952 
3954.000000	98.003874 
3953.000000	98.008956 
3952.000000	98.014285 
3951.000000	98.018262 
3950.000000	98.019224 
3949.000000	98.016815 
3948.000000	98.012981 
3947.000000	98.011305 
3946.000000	98.014362 
3945.000000	98.020958 
3944.000000	98.026351 
3943.000000	98.026252 
3942.000000	98.021563 
3941.000000	98.017553 
3940.000000	98.017743 
3939.000000	98.020398 
3938.000000	98.021109 
3937.000000	98.017916 
3936.000000	98.013467 
3935.000000	98.011488 
3934.000000	98.012504 
3933.000000	98.012910 
3932.000000	98.008724 
3931.000000	97.999535 
3930.000000	97.988619 
3929.000000	97.980838 
3928.000000	97.979482 
3927.000000	97.983718 
3926.000000	97.989008 
3925.000000	97.990238 
3924.000000	97.985850 
3923.000000	97.978622 
3922.000000	97.972253 
3921.000000	97.969619 
3920.000000	97.972741 
3919.000000	97.981933 
3918.000000	97.993985 
3917.000000	98.003481 
3916.000000	98.007853 
3915.000000	98.009546 
3914.000000	98.012059 
3913.000000	98.015973 
3912.000000	98.019370 
3911.000000	98.021441 
3910.000000	98.023271 
3909.000000	98.026030 
3908.000000	98.030647 
3907.000000	98.037335 
3906.000000	98.044657 
3905.000000	98.047916 
3904.000000	98.042560 
3903.000000	98.031244 
3902.000000	98.022773 
3901.000000	98.022851 
3900.000000	98.029577 
3899.000000	98.037300 
3898.000000	98.043068 
3897.000000	98.047252 
3896.000000	98.050097 
3895.000000	98.051968 
3894.000000	98.054288 
3893.000000	98.057252 
3892.000000	98.056982 
3891.000000	98.048831 
3890.000000	98.035093 
3889.000000	98.023555 
3888.000000	98.020927 
3887.000000	98.027439 
3886.000000	98.036754 
3885.000000	98.042334 
3884.000000	98.042950 
3883.000000	98.040622 
3882.000000	98.036969 
3881.000000	98.033124 
3880.000000	98.031479 
3879.000000	98.033153 
3878.000000	98.036801 
3877.000000	98.040048 
3876.000000	98.040884 
3875.000000	98.037826 
3874.000000	98.032429 
3873.000000	98.030311 
3872.000000	98.036052 
3871.000000	98.045803 
3870.000000	98.050133 
3869.000000	98.047653 
3868.000000	98.045202 
3867.000000	98.045998 
3866.000000	98.047346 
3865.000000	98.047056 
3864.000000	98.046653 
3863.000000	98.047719 
3862.000000	98.046809 
3861.000000	98.040386 
3860.000000	98.030417 
3859.000000	98.021751 
3858.000000	98.017088 
3857.000000	98.016210 
3856.000000	98.018258 
3855.000000	98.021839 
3854.000000	98.016867 
3853.000000	98.000586 
3852.000000	97.989052 
3851.000000	97.992872 
3850.000000	98.005523 
3849.000000	98.018572 
3848.000000	98.028406 
3847.000000	98.035953 
3846.000000	98.042032 
3845.000000	98.044586 
3844.000000	98.040968 
3843.000000	98.032421 
3842.000000	98.023510 
3841.000000	98.019312 
3840.000000	98.022626 
3839.000000	98.032051 
3838.000000	98.042838 
3837.000000	98.049716 
3836.000000	98.051128 
3835.000000	98.049759 
3834.000000	98.048425 
3833.000000	98.047814 
3832.000000	98.047389 
3831.000000	98.047226 
3830.000000	98.048109 
3829.000000	98.049529 
3828.000000	98.049178 
3827.000000	98.045920 
3826.000000	98.041400 
3825.000000	98.038536 
3824.000000	98.039099 
3823.000000	98.042686 
3822.000000	98.044532 
3821.000000	98.039896 
3820.000000	98.033442 
3819.000000	98.033320 
3818.000000	98.041128 
3817.000000	98.052460 
3816.000000	98.063410 
3815.000000	98.075022 
3814.000000	98.087821 
3813.000000	98.096903 
3812.000000	98.096070 
3811.000000	98.084503 
3810.000000	98.067422 
3809.000000	98.051323 
3808.000000	98.038224 
3807.000000	98.027273 
3806.000000	98.019014 
3805.000000	98.015119 
3804.000000	98.014800 
3803.000000	98.015541 
3802.000000	98.015036 
3801.000000	98.014988 
3800.000000	98.020364 
3799.000000	98.031105 
3798.000000	98.041977 
3797.000000	98.049191 
3796.000000	98.053502 
3795.000000	98.057733 
3794.000000	98.062543 
3793.000000	98.066965 
3792.000000	98.071340 
3791.000000	98.077084 
3790.000000	98.083415 
3789.000000	98.086880 
3788.000000	98.085378 
3787.000000	98.081128 
3786.000000	98.078338 
3785.000000	98.078531 
3784.000000	98.079243 
3783.000000	98.076964 
3782.000000	98.070148 
3781.000000	98.060093 
3780.000000	98.050078 
3779.000000	98.044832 
3778.000000	98.047895 
3777.000000	98.058439 
3776.000000	98.071413 
3775.000000	98.081194 
3774.000000	98.084785 
3773.000000	98.082516 
3772.000000	98.076583 
3771.000000	98.069317 
3770.000000	98.062565 
3769.000000	98.058291 
3768.000000	98.058380 
3767.000000	98.062369 
3766.000000	98.067550 
3765.000000	98.070556 
3764.000000	98.068748 
3763.000000	98.061223 
3762.000000	98.049131 
3761.000000	98.036428 
3760.000000	98.027600 
3759.000000	98.023294 
3758.000000	98.018496 
3757.000000	98.007948 
3756.000000	97.992659 
3755.000000	97.978380 
3754.000000	97.969303 
3753.000000	97.965218 
3752.000000	97.963151 
3751.000000	97.959666 
3750.000000	97.953778 
3749.000000	97.946478 
3748.000000	97.940530 
3747.000000	97.938402 
3746.000000	97.938125 
3745.000000	97.930909 
3744.000000	97.915485 
3743.000000	97.902306 
3742.000000	97.895642 
3741.000000	97.890379 
3740.000000	97.882312 
3739.000000	97.872406 
3738.000000	97.864521 
3737.000000	97.860074 
3736.000000	97.859013 
3735.000000	97.863520 
3734.000000	97.872537 
3733.000000	97.878280 
3732.000000	97.873481 
3731.000000	97.860124 
3730.000000	97.847219 
3729.000000	97.841409 
3728.000000	97.842754 
3727.000000	97.847345 
3726.000000	97.851598 
3725.000000	97.855142 
3724.000000	97.860898 
3723.000000	97.873131 
3722.000000	97.893506 
3721.000000	97.921331 
3720.000000	97.954374 
3719.000000	97.986357 
3718.000000	98.007352 
3717.000000	98.008483 
3716.000000	97.988961 
3715.000000	97.956715 
3714.000000	97.920171 
3713.000000	97.887391 
3712.000000	97.863650 
3711.000000	97.854299 
3710.000000	97.860789 
3709.000000	97.877966 
3708.000000	97.898722 
3707.000000	97.915701 
3706.000000	97.926998 
3705.000000	97.933073 
3704.000000	97.938179 
3703.000000	97.945974 
3702.000000	97.957884 
3701.000000	97.971111 
3700.000000	97.982447 
3699.000000	97.988539 
3698.000000	97.987641 
3697.000000	97.980498 
3696.000000	97.969496 
3695.000000	97.959082 
3694.000000	97.952527 
3693.000000	97.955528 
3692.000000	97.972189 
3691.000000	98.002060 
3690.000000	98.031646 
3689.000000	98.045335 
3688.000000	98.043696 
3687.000000	98.040095 
3686.000000	98.045160 
3685.000000	98.057712 
3684.000000	98.071857 
3683.000000	98.081752 
3682.000000	98.086731 
3681.000000	98.085482 
3680.000000	98.076084 
3679.000000	98.059243 
3678.000000	98.041756 
3677.000000	98.032909 
3676.000000	98.033162 
3675.000000	98.037867 
3674.000000	98.045995 
3673.000000	98.057972 
3672.000000	98.071563 
3671.000000	98.085499 
3670.000000	98.098025 
3669.000000	98.109534 
3668.000000	98.120517 
3667.000000	98.129094 
3666.000000	98.133809 
3665.000000	98.135860 
3664.000000	98.136832 
3663.000000	98.136651 
3662.000000	98.133864 
3661.000000	98.127896 
3660.000000	98.121588 
3659.000000	98.119211 
3658.000000	98.122164 
3657.000000	98.125597 
3656.000000	98.123408 
3655.000000	98.115775 
3654.000000	98.107391 
3653.000000	98.101814 
3652.000000	98.099748 
3651.000000	98.098943 
3650.000000	98.092983 
3649.000000	98.078163 
3648.000000	98.061514 
3647.000000	98.054186 
3646.000000	98.060199 
3645.000000	98.075029 
3644.000000	98.089227 
3643.000000	98.093626 
3642.000000	98.084581 
3641.000000	98.065075 
3640.000000	98.041930 
3639.000000	98.020718 
3638.000000	98.004488 
3637.000000	97.993883 
3636.000000	97.987055 
3635.000000	97.980679 
3634.000000	97.972992 
3633.000000	97.965309 
3632.000000	97.960092 
3631.000000	97.957297 
3630.000000	97.952391 
3629.000000	97.940936 
3628.000000	97.929099 
3627.000000	97.926585 
3626.000000	97.934023 
3625.000000	97.947347 
3624.000000	97.965263 
3623.000000	97.989597 
3622.000000	98.021007 
3621.000000	98.053933 
3620.000000	98.075943 
3619.000000	98.077886 
3618.000000	98.065443 
3617.000000	98.050945 
3616.000000	98.039722 
3615.000000	98.029444 
3614.000000	98.017088 
3613.000000	98.004990 
3612.000000	97.997895 
3611.000000	97.995416 
3610.000000	97.990239 
3609.000000	97.977791 
3608.000000	97.963449 
3607.000000	97.955549 
3606.000000	97.956130 
3605.000000	97.959266 
3604.000000	97.959238 
3603.000000	97.953878 
3602.000000	97.946451 
3601.000000	97.943618 
3600.000000	97.949912 
3599.000000	97.963850 
3598.000000	97.978909 
3597.000000	97.989169 
3596.000000	97.992344 
3595.000000	97.991210 
3594.000000	97.988669 
3593.000000	97.987931 
3592.000000	97.991614 
3591.000000	98.003140 
3590.000000	98.023598 
3589.000000	98.048591 
3588.000000	98.066685 
3587.000000	98.068143 
3586.000000	98.056060 
3585.000000	98.041456 
3584.000000	98.034117 
3583.000000	98.035850 
3582.000000	98.043267 
3581.000000	98.051207 
3580.000000	98.056013 
3579.000000	98.057233 
3578.000000	98.056245 
3577.000000	98.056631 
3576.000000	98.060430 
3575.000000	98.067728 
3574.000000	98.075059 
3573.000000	98.079586 
3572.000000	98.080908 
3571.000000	98.081745 
3570.000000	98.083871 
3569.000000	98.086322 
3568.000000	98.085684 
3567.000000	98.080702 
3566.000000	98.074649 
3565.000000	98.071840 
3564.000000	98.072406 
3563.000000	98.073004 
3562.000000	98.070748 
3561.000000	98.066781 
3560.000000	98.065331 
3559.000000	98.069262 
3558.000000	98.076817 
3557.000000	98.083735 
3556.000000	98.087311 
3555.000000	98.088360 
3554.000000	98.089598 
3553.000000	98.092494 
3552.000000	98.096118 
3551.000000	98.098384 
3550.000000	98.097745 
3549.000000	98.093955 
3548.000000	98.087934 
3547.000000	98.081041 
3546.000000	98.075391 
3545.000000	98.074195 
3544.000000	98.079981 
3543.000000	98.091163 
3542.000000	98.100961 
3541.000000	98.102303 
3540.000000	98.094579 
3539.000000	98.084624 
3538.000000	98.080460 
3537.000000	98.083930 
3536.000000	98.089845 
3535.000000	98.091492 
3534.000000	98.086671 
3533.000000	98.078895 
3532.000000	98.073649 
3531.000000	98.073714 
3530.000000	98.076967 
3529.000000	98.078618 
3528.000000	98.075640 
3527.000000	98.069065 
3526.000000	98.062506 
3525.000000	98.059387 
3524.000000	98.060911 
3523.000000	98.065453 
3522.000000	98.069744 
3521.000000	98.070992 
3520.000000	98.068300 
3519.000000	98.062113 
3518.000000	98.053820 
3517.000000	98.045991 
3516.000000	98.042006 
3515.000000	98.043975 
3514.000000	98.050643 
3513.000000	98.058022 
3512.000000	98.062297 
3511.000000	98.062214 
3510.000000	98.059387 
3509.000000	98.056737 
3508.000000	98.056264 
3507.000000	98.057388 
3506.000000	98.057399 
3505.000000	98.053302 
3504.000000	98.043995 
3503.000000	98.031190 
3502.000000	98.018620 
3501.000000	98.009978 
3500.000000	98.006518 
3499.000000	98.006361 
3498.000000	98.006604 
3497.000000	98.006728 
3496.000000	98.008717 
3495.000000	98.013191 
3494.000000	98.017100 
3493.000000	98.016907 
3492.000000	98.013352 
3491.000000	98.010889 
3490.000000	98.012450 
3489.000000	98.016242 
3488.000000	98.018221 
3487.000000	98.016517 
3486.000000	98.012628 
3485.000000	98.008886 
3484.000000	98.005923 
3483.000000	98.002519 
3482.000000	97.997172 
3481.000000	97.989537 
3480.000000	97.980689 
3479.000000	97.972502 
3478.000000	97.966678 
3477.000000	97.963844 
3476.000000	97.963108 
3475.000000	97.963037 
3474.000000	97.963202 
3473.000000	97.963808 
3472.000000	97.963563 
3471.000000	97.959592 
3470.000000	97.951034 
3469.000000	97.941748 
3468.000000	97.937049 
3467.000000	97.937649 
3466.000000	97.939036 
3465.000000	97.937600 
3464.000000	97.935416 
3463.000000	97.937592 
3462.000000	97.945684 
3461.000000	97.955165 
3460.000000	97.959339 
3459.000000	97.955309 
3458.000000	97.946624 
3457.000000	97.940134 
3456.000000	97.940297 
3455.000000	97.945759 
3454.000000	97.951547 
3453.000000	97.954255 
3452.000000	97.954434 
3451.000000	97.954656 
3450.000000	97.956135 
3449.000000	97.957850 
3448.000000	97.958424 
3447.000000	97.958447 
3446.000000	97.960366 
3445.000000	97.965655 
3444.000000	97.972363 
3443.000000	97.976135 
3442.000000	97.974150 
3441.000000	97.967743 
3440.000000	97.960952 
3439.000000	97.957121 
3438.000000	97.957155 
3437.000000	97.959695 
3436.000000	97.962298 
3435.000000	97.963180 
3434.000000	97.963074 
3433.000000	97.964872 
3432.000000	97.970078 
3431.000000	97.976038 
3430.000000	97.977653 
3429.000000	97.972144 
3428.000000	97.961606 
3427.000000	97.951318 
3426.000000	97.946256 
3425.000000	97.948465 
3424.000000	97.956194 
3423.000000	97.965208 
3422.000000	97.971905 
3421.000000	97.975366 
3420.000000	97.976337 
3419.000000	97.975437 
3418.000000	97.973797 
3417.000000	97.974132 
3416.000000	97.978129 
3415.000000	97.982604 
3414.000000	97.981194 
3413.000000	97.971595 
3412.000000	97.959574 
3411.000000	97.954051 
3410.000000	97.958788 
3409.000000	97.969715 
3408.000000	97.979352 
3407.000000	97.983020 
3406.000000	97.981733 
3405.000000	97.980062 
3404.000000	97.981296 
3403.000000	97.984427 
3402.000000	97.986299 
3401.000000	97.985887 
3400.000000	97.984661 
3399.000000	97.983077 
3398.000000	97.979392 
3397.000000	97.972955 
3396.000000	97.966405 
3395.000000	97.962902 
3394.000000	97.962549 
3393.000000	97.963078 
3392.000000	97.962981 
3391.000000	97.962457 
3390.000000	97.961888 
3389.000000	97.960757 
3388.000000	97.958313 
3387.000000	97.955070 
3386.000000	97.953856 
3385.000000	97.958290 
3384.000000	97.968583 
3383.000000	97.979136 
3382.000000	97.982685 
3381.000000	97.977423 
3380.000000	97.968331 
3379.000000	97.961547 
3378.000000	97.959337 
3377.000000	97.960719 
3376.000000	97.963679 
3375.000000	97.965230 
3374.000000	97.962277 
3373.000000	97.955219 
3372.000000	97.949253 
3371.000000	97.949560 
3370.000000	97.955464 
3369.000000	97.960734 
3368.000000	97.959388 
3367.000000	97.950448 
3366.000000	97.938173 
3365.000000	97.928836 
3364.000000	97.926617 
3363.000000	97.931486 
3362.000000	97.940696 
3361.000000	97.951557 
3360.000000	97.961413 
3359.000000	97.965843 
3358.000000	97.960353 
3357.000000	97.945700 
3356.000000	97.929495 
3355.000000	97.920212 
3354.000000	97.919906 
3353.000000	97.923793 
3352.000000	97.925623 
3351.000000	97.922486 
3350.000000	97.915891 
3349.000000	97.909905 
3348.000000	97.907883 
3347.000000	97.909689 
3346.000000	97.912359 
3345.000000	97.913619 
3344.000000	97.913732 
3343.000000	97.913647 
3342.000000	97.912670 
3341.000000	97.908932 
3340.000000	97.901209 
3339.000000	97.889753 
3338.000000	97.876257 
3337.000000	97.863174 
3336.000000	97.851765 
3335.000000	97.840703 
3334.000000	97.828394 
3333.000000	97.816726 
3332.000000	97.810151 
3331.000000	97.810023 
3330.000000	97.811941 
3329.000000	97.810068 
3328.000000	97.802479 
3327.000000	97.791087 
3326.000000	97.778413 
3325.000000	97.766245 
3324.000000	97.755770 
3323.000000	97.746746 
3322.000000	97.737240 
3321.000000	97.725870 
3320.000000	97.713636 
3319.000000	97.702201 
3318.000000	97.691148 
3317.000000	97.678433 
3316.000000	97.662975 
3315.000000	97.645546 
3314.000000	97.627413 
3313.000000	97.609161 
3312.000000	97.590655 
3311.000000	97.571445 
3310.000000	97.551171 
3309.000000	97.529498 
3308.000000	97.505211 
3307.000000	97.476141 
3306.000000	97.441660 
3305.000000	97.405093 
3304.000000	97.371614 
3303.000000	97.343184 
3302.000000	97.317381 
3301.000000	97.291516 
3300.000000	97.265508 
3299.000000	97.239643 
3298.000000	97.212293 
3297.000000	97.182251 
3296.000000	97.151786 
3295.000000	97.124909 
3294.000000	97.102886 
3293.000000	97.082962 
3292.000000	97.061310 
3291.000000	97.036402 
3290.000000	97.010072 
3289.000000	96.986172 
3288.000000	96.967665 
3287.000000	96.954173 
3286.000000	96.942448 
3285.000000	96.929279 
3284.000000	96.913255 
3283.000000	96.894165 
3282.000000	96.872507 
3281.000000	96.850098 
3280.000000	96.829673 
3279.000000	96.812806 
3278.000000	96.798975 
3277.000000	96.786749 
3276.000000	96.774664 
3275.000000	96.761067 
3274.000000	96.744953 
3273.000000	96.727391 
3272.000000	96.710405 
3271.000000	96.693969 
3270.000000	96.675751 
3269.000000	96.654278 
3268.000000	96.630669 
3267.000000	96.606958 
3266.000000	96.584592 
3265.000000	96.564796 
3264.000000	96.547849 
3263.000000	96.531277 
3262.000000	96.511250 
3261.000000	96.487015 
3260.000000	96.461818 
3259.000000	96.438302 
3258.000000	96.415345 
3257.000000	96.390748 
3256.000000	96.364679 
3255.000000	96.338501 
3254.000000	96.312275 
3253.000000	96.285619 
3252.000000	96.259751 
3251.000000	96.236589 
3250.000000	96.216376 
3249.000000	96.197541 
3248.000000	96.178087 
3247.000000	96.156120 
3246.000000	96.130093 
3245.000000	96.099853 
3244.000000	96.067053 
3243.000000	96.033968 
3242.000000	96.002350 
3241.000000	95.973058 
3240.000000	95.945233 
3239.000000	95.916011 
3238.000000	95.883039 
3237.000000	95.847544 
3236.000000	95.813053 
3235.000000	95.780908 
3234.000000	95.749219 
3233.000000	95.716243 
3232.000000	95.682119 
3231.000000	95.646848 
3230.000000	95.609500 
3229.000000	95.570692 
3228.000000	95.533277 
3227.000000	95.499077 
3226.000000	95.467014 
3225.000000	95.435477 
3224.000000	95.404095 
3223.000000	95.372036 
3222.000000	95.337306 
3221.000000	95.299721 
3220.000000	95.262394 
3219.000000	95.228072 
3218.000000	95.195434 
3217.000000	95.160694 
3216.000000	95.121596 
3215.000000	95.078622 
3214.000000	95.033906 
3213.000000	94.990430 
3212.000000	94.950907 
3211.000000	94.915840 
3210.000000	94.882998 
3209.000000	94.849311 
3208.000000	94.812498 
3207.000000	94.771032 
3206.000000	94.724319 
3205.000000	94.673333 
3204.000000	94.619325 
3203.000000	94.561632 
3202.000000	94.498560 
3201.000000	94.430795 
3200.000000	94.362004 
3199.000000	94.295724 
3198.000000	94.233209 
3197.000000	94.173666 
3196.000000	94.113972 
3195.000000	94.048674 
3194.000000	93.974011 
3193.000000	93.892610 
3192.000000	93.810817 
3191.000000	93.730587 
3190.000000	93.647518 
3189.000000	93.558086 
