PE IR                   SPECTRUM    ASCII       PEDS        1.60        
  -1
~SP.SP
18/03/23
18:23:29.00
18/03/23
18:23:29.00
pili

650.000000
4









SPECTRUM 100,CPU32 MAIN 00.02.8200 12-DECEMBER-2006 10:00:00
MIR TGS
MIR
OPTKBR
78890
0.200000

4.000000
STRONG
RATIO
SPECTRUM
MAGNITUDE
UNIVERSAL ATR
DOUBLE

COMBINED


0


#HDR
-1
-1
#GR
CM-1
%T
0.00002384185791015625
0.0
4000.000000
-1.000000
3351
8
98.903355
39.760255
#DATA
4000.000000	97.574071 
3999.000000	97.571765 
3998.000000	97.580255 
3997.000000	97.598609 
3996.000000	97.619458 
3995.000000	97.634678 
3994.000000	97.619071 
3993.000000	97.624010 
3992.000000	97.630981 
3991.000000	97.638901 
3990.000000	97.642034 
3989.000000	97.636274 
3988.000000	97.623867 
3987.000000	97.612027 
3986.000000	97.606872 
3985.000000	97.609027 
3984.000000	97.614607 
3983.000000	97.619600 
3982.000000	97.622413 
3981.000000	97.622850 
3980.000000	97.620405 
3979.000000	97.614448 
3978.000000	97.605748 
3977.000000	97.597346 
3976.000000	97.593328 
3975.000000	97.595698 
3974.000000	97.601736 
3973.000000	97.605098 
3972.000000	97.601066 
3971.000000	97.590814 
3970.000000	97.580214 
3969.000000	97.574533 
3968.000000	97.574931 
3967.000000	97.579981 
3966.000000	97.588443 
3965.000000	97.599111 
3964.000000	97.608964 
3963.000000	97.613343 
3962.000000	97.609186 
3961.000000	97.598294 
3960.000000	97.587028 
3959.000000	97.581800 
3958.000000	97.584346 
3957.000000	97.591300 
3956.000000	97.598073 
3955.000000	97.603386 
3954.000000	97.609224 
3953.000000	97.617453 
3952.000000	97.627687 
3951.000000	97.638382 
3950.000000	97.649135 
3949.000000	97.660145 
3948.000000	97.670079 
3947.000000	97.675589 
3946.000000	97.673626 
3945.000000	97.664628 
3944.000000	97.653554 
3943.000000	97.647310 
3942.000000	97.649146 
3941.000000	97.655594 
3940.000000	97.660464 
3939.000000	97.660874 
3938.000000	97.658097 
3937.000000	97.653771 
3936.000000	97.647080 
3935.000000	97.637050 
3934.000000	97.625456 
3933.000000	97.616686 
3932.000000	97.614809 
3931.000000	97.621122 
3930.000000	97.633378 
3929.000000	97.645665 
3928.000000	97.651588 
3927.000000	97.649968 
3926.000000	97.646383 
3925.000000	97.648141 
3924.000000	97.656355 
3923.000000	97.664328 
3922.000000	97.665353 
3921.000000	97.659474 
3920.000000	97.652374 
3919.000000	97.648909 
3918.000000	97.648638 
3917.000000	97.647649 
3916.000000	97.643026 
3915.000000	97.635443 
3914.000000	97.628195 
3913.000000	97.624728 
3912.000000	97.626836 
3911.000000	97.633595 
3910.000000	97.641823 
3909.000000	97.647504 
3908.000000	97.646613 
3907.000000	97.638441 
3906.000000	97.627938 
3905.000000	97.624822 
3904.000000	97.636371 
3903.000000	97.658406 
3902.000000	97.677980 
3901.000000	97.686545 
3900.000000	97.686887 
3899.000000	97.688015 
3898.000000	97.694526 
3897.000000	97.703533 
3896.000000	97.710495 
3895.000000	97.712248 
3894.000000	97.706191 
3893.000000	97.692156 
3892.000000	97.676459 
3891.000000	97.669452 
3890.000000	97.672477 
3889.000000	97.676976 
3888.000000	97.676068 
3887.000000	97.672721 
3886.000000	97.676786 
3885.000000	97.693115 
3884.000000	97.713778 
3883.000000	97.726734 
3882.000000	97.727181 
3881.000000	97.719574 
3880.000000	97.713055 
3879.000000	97.713567 
3878.000000	97.717689 
3877.000000	97.719181 
3876.000000	97.717842 
3875.000000	97.720387 
3874.000000	97.732334 
3873.000000	97.749236 
3872.000000	97.758842 
3871.000000	97.754874 
3870.000000	97.744727 
3869.000000	97.736565 
3868.000000	97.728551 
3867.000000	97.717833 
3866.000000	97.707225 
3865.000000	97.700344 
3864.000000	97.696945 
3863.000000	97.695660 
3862.000000	97.699346 
3861.000000	97.710705 
3860.000000	97.726481 
3859.000000	97.741576 
3858.000000	97.754939 
3857.000000	97.767552 
3856.000000	97.774711 
3855.000000	97.768213 
3854.000000	97.756036 
3853.000000	97.754407 
3852.000000	97.756507 
3851.000000	97.746910 
3850.000000	97.731070 
3849.000000	97.722289 
3848.000000	97.725461 
3847.000000	97.735232 
3846.000000	97.744729 
3845.000000	97.752203 
3844.000000	97.759188 
3843.000000	97.765727 
3842.000000	97.770654 
3841.000000	97.772643 
3840.000000	97.770975 
3839.000000	97.766738 
3838.000000	97.761930 
3837.000000	97.758099 
3836.000000	97.755586 
3835.000000	97.754995 
3834.000000	97.757093 
3833.000000	97.760012 
3832.000000	97.760709 
3831.000000	97.758617 
3830.000000	97.755036 
3829.000000	97.752150 
3828.000000	97.752662 
3827.000000	97.758168 
3826.000000	97.767591 
3825.000000	97.776268 
3824.000000	97.777500 
3823.000000	97.766886 
3822.000000	97.749383 
3821.000000	97.738765 
3820.000000	97.741150 
3819.000000	97.748788 
3818.000000	97.753710 
3817.000000	97.755804 
3816.000000	97.759034 
3815.000000	97.763252 
3814.000000	97.763970 
3813.000000	97.760850 
3812.000000	97.758573 
3811.000000	97.758671 
3810.000000	97.757635 
3809.000000	97.752542 
3808.000000	97.747792 
3807.000000	97.752409 
3806.000000	97.768522 
3805.000000	97.788166 
3804.000000	97.803948 
3803.000000	97.813408 
3802.000000	97.819114 
3801.000000	97.825730 
3800.000000	97.829617 
3799.000000	97.823677 
3798.000000	97.808768 
3797.000000	97.790177 
3796.000000	97.771690 
3795.000000	97.755365 
3794.000000	97.743783 
3793.000000	97.740159 
3792.000000	97.745265 
3791.000000	97.754409 
3790.000000	97.760582 
3789.000000	97.760453 
3788.000000	97.755856 
3787.000000	97.751098 
3786.000000	97.749512 
3785.000000	97.751626 
3784.000000	97.755427 
3783.000000	97.757888 
3782.000000	97.757472 
3781.000000	97.755979 
3780.000000	97.757258 
3779.000000	97.762216 
3778.000000	97.766029 
3777.000000	97.762340 
3776.000000	97.750410 
3775.000000	97.736496 
3774.000000	97.728021 
3773.000000	97.727290 
3772.000000	97.730316 
3771.000000	97.731402 
3770.000000	97.728829 
3769.000000	97.724917 
3768.000000	97.721960 
3767.000000	97.722661 
3766.000000	97.728990 
3765.000000	97.738505 
3764.000000	97.744903 
3763.000000	97.744770 
3762.000000	97.743253 
3761.000000	97.749932 
3760.000000	97.768593 
3759.000000	97.791508 
3758.000000	97.807767 
3757.000000	97.815318 
3756.000000	97.821407 
3755.000000	97.834765 
3754.000000	97.857241 
3753.000000	97.880336 
3752.000000	97.891193 
3751.000000	97.888446 
3750.000000	97.886434 
3749.000000	97.896015 
3748.000000	97.912341 
3747.000000	97.922988 
3746.000000	97.917410 
3745.000000	97.901669 
3744.000000	97.892715 
3743.000000	97.887577 
3742.000000	97.871681 
3741.000000	97.847246 
3740.000000	97.826420 
3739.000000	97.815124 
3738.000000	97.808534 
3737.000000	97.800086 
3736.000000	97.789029 
3735.000000	97.780719 
3734.000000	97.781293 
3733.000000	97.790187 
3732.000000	97.798326 
3731.000000	97.794683 
3730.000000	97.777368 
3729.000000	97.757990 
3728.000000	97.751402 
3727.000000	97.762654 
3726.000000	97.782322 
3725.000000	97.794696 
3724.000000	97.792162 
3723.000000	97.780907 
3722.000000	97.774493 
3721.000000	97.779883 
3720.000000	97.792358 
3719.000000	97.801968 
3718.000000	97.802604 
3717.000000	97.797767 
3716.000000	97.796866 
3715.000000	97.807243 
3714.000000	97.827080 
3713.000000	97.843827 
3712.000000	97.844927 
3711.000000	97.829792 
3710.000000	97.809865 
3709.000000	97.797661 
3708.000000	97.796484 
3707.000000	97.802507 
3706.000000	97.809722 
3705.000000	97.812913 
3704.000000	97.808569 
3703.000000	97.795487 
3702.000000	97.778101 
3701.000000	97.764694 
3700.000000	97.760993 
3699.000000	97.767930 
3698.000000	97.784033 
3697.000000	97.807151 
3696.000000	97.833764 
3695.000000	97.858609 
3694.000000	97.878138 
3693.000000	97.892877 
3692.000000	97.904984 
3691.000000	97.912726 
3690.000000	97.911468 
3689.000000	97.901716 
3688.000000	97.888260 
3687.000000	97.874894 
3686.000000	97.865246 
3685.000000	97.862108 
3684.000000	97.863822 
3683.000000	97.865665 
3682.000000	97.866600 
3681.000000	97.872556 
3680.000000	97.889226 
3679.000000	97.912205 
3678.000000	97.926007 
3677.000000	97.915887 
3676.000000	97.889745 
3675.000000	97.872960 
3674.000000	97.873510 
3673.000000	97.878432 
3672.000000	97.878398 
3671.000000	97.874603 
3670.000000	97.875648 
3669.000000	97.886164 
3668.000000	97.899510 
3667.000000	97.908109 
3666.000000	97.911025 
3665.000000	97.910343 
3664.000000	97.906302 
3663.000000	97.897209 
3662.000000	97.883725 
3661.000000	97.871687 
3660.000000	97.867036 
3659.000000	97.869654 
3658.000000	97.873904 
3657.000000	97.876787 
3656.000000	97.882049 
3655.000000	97.891712 
3654.000000	97.902350 
3653.000000	97.911176 
3652.000000	97.918889 
3651.000000	97.926686 
3650.000000	97.935719 
3649.000000	97.946377 
3648.000000	97.956552 
3647.000000	97.964081 
3646.000000	97.969697 
3645.000000	97.974939 
3644.000000	97.979935 
3643.000000	97.983726 
3642.000000	97.984836 
3641.000000	97.983160 
3640.000000	97.979647 
3639.000000	97.975350 
3638.000000	97.969775 
3637.000000	97.961376 
3636.000000	97.950832 
3635.000000	97.942382 
3634.000000	97.940366 
3633.000000	97.943930 
3632.000000	97.948026 
3631.000000	97.949303 
3630.000000	97.950793 
3629.000000	97.960798 
3628.000000	97.981014 
3627.000000	98.001356 
3626.000000	98.015773 
3625.000000	98.027623 
3624.000000	98.037290 
3623.000000	98.037356 
3622.000000	98.021666 
3621.000000	97.996033 
3620.000000	97.978796 
3619.000000	97.986239 
3618.000000	98.015371 
3617.000000	98.047225 
3616.000000	98.064237 
3615.000000	98.059073 
3614.000000	98.035493 
3613.000000	98.005737 
3612.000000	97.984833 
3611.000000	97.983492 
3610.000000	98.002067 
3609.000000	98.028376 
3608.000000	98.044801 
3607.000000	98.044165 
3606.000000	98.036899 
3605.000000	98.040452 
3604.000000	98.062658 
3603.000000	98.094553 
3602.000000	98.118342 
3601.000000	98.122508 
3600.000000	98.111347 
3599.000000	98.098509 
3598.000000	98.093690 
3597.000000	98.097625 
3596.000000	98.106245 
3595.000000	98.115737 
3594.000000	98.125225 
3593.000000	98.134183 
3592.000000	98.140793 
3591.000000	98.144137 
3590.000000	98.145504 
3589.000000	98.147258 
3588.000000	98.150892 
3587.000000	98.156810 
3586.000000	98.163718 
3585.000000	98.169744 
3584.000000	98.174630 
3583.000000	98.180951 
3582.000000	98.190931 
3581.000000	98.203821 
3580.000000	98.216139 
3579.000000	98.223935 
3578.000000	98.226090 
3577.000000	98.225270 
3576.000000	98.226260 
3575.000000	98.231342 
3574.000000	98.238179 
3573.000000	98.242829 
3572.000000	98.244799 
3571.000000	98.249462 
3570.000000	98.263848 
3569.000000	98.288415 
3568.000000	98.313063 
3567.000000	98.327118 
3566.000000	98.332356 
3565.000000	98.339073 
3564.000000	98.352117 
3563.000000	98.366484 
3562.000000	98.374440 
3561.000000	98.374328 
3560.000000	98.371487 
3559.000000	98.371913 
3558.000000	98.377319 
3557.000000	98.386609 
3556.000000	98.399156 
3555.000000	98.415123 
3554.000000	98.433873 
3553.000000	98.454804 
3552.000000	98.478176 
3551.000000	98.503471 
3550.000000	98.526751 
3549.000000	98.541046 
3548.000000	98.540155 
3547.000000	98.524537 
3546.000000	98.503916 
3545.000000	98.491476 
3544.000000	98.492534 
3543.000000	98.500460 
3542.000000	98.504870 
3541.000000	98.502495 
3540.000000	98.499030 
3539.000000	98.502464 
3538.000000	98.516174 
3537.000000	98.538323 
3536.000000	98.564209 
3535.000000	98.587986 
3534.000000	98.604450 
3533.000000	98.612313 
3532.000000	98.616139 
3531.000000	98.622687 
3530.000000	98.634306 
3529.000000	98.646037 
3528.000000	98.650115 
3527.000000	98.643523 
3526.000000	98.631130 
3525.000000	98.621789 
3524.000000	98.622229 
3523.000000	98.633718 
3522.000000	98.652620 
3521.000000	98.672577 
3520.000000	98.686893 
3519.000000	98.692434 
3518.000000	98.692928 
3517.000000	98.697015 
3516.000000	98.710225 
3515.000000	98.729255 
3514.000000	98.746004 
3513.000000	98.756416 
3512.000000	98.762757 
3511.000000	98.767253 
3510.000000	98.767182 
3509.000000	98.758871 
3508.000000	98.744665 
3507.000000	98.732996 
3506.000000	98.731214 
3505.000000	98.739553 
3504.000000	98.751241 
3503.000000	98.758722 
3502.000000	98.759944 
3501.000000	98.758253 
3500.000000	98.756841 
3499.000000	98.754984 
3498.000000	98.750939 
3497.000000	98.747092 
3496.000000	98.749645 
3495.000000	98.761878 
3494.000000	98.779491 
3493.000000	98.793823 
3492.000000	98.798396 
3491.000000	98.791979 
3490.000000	98.778150 
3489.000000	98.764007 
3488.000000	98.757256 
3487.000000	98.760842 
3486.000000	98.770101 
3485.000000	98.777421 
3484.000000	98.779224 
3483.000000	98.776271 
3482.000000	98.768537 
3481.000000	98.754701 
3480.000000	98.738561 
3479.000000	98.731342 
3478.000000	98.742379 
3477.000000	98.767492 
3476.000000	98.790300 
3475.000000	98.796880 
3474.000000	98.788356 
3473.000000	98.778023 
3472.000000	98.777887 
3471.000000	98.789066 
3470.000000	98.803625 
3469.000000	98.813722 
3468.000000	98.819071 
3467.000000	98.826701 
3466.000000	98.842744 
3465.000000	98.863795 
3464.000000	98.877449 
3463.000000	98.873539 
3462.000000	98.855630 
3461.000000	98.839434 
3460.000000	98.839003 
3459.000000	98.855193 
3458.000000	98.877346 
3457.000000	98.893976 
3456.000000	98.899843 
3455.000000	98.895516 
3454.000000	98.884674 
3453.000000	98.873191 
3452.000000	98.868083 
3451.000000	98.873335 
3450.000000	98.886056 
3449.000000	98.897674 
3448.000000	98.900184 
3447.000000	98.892109 
3446.000000	98.879035 
3445.000000	98.868300 
3444.000000	98.863358 
3443.000000	98.862813 
3442.000000	98.863526 
3441.000000	98.864069 
3440.000000	98.865478 
3439.000000	98.869860 
3438.000000	98.878653 
3437.000000	98.890766 
3436.000000	98.901216 
3435.000000	98.903355 
3434.000000	98.894673 
3433.000000	98.880180 
3432.000000	98.868689 
3431.000000	98.865549 
3430.000000	98.870213 
3429.000000	98.879230 
3428.000000	98.888964 
3427.000000	98.896047 
3426.000000	98.898592 
3425.000000	98.898154 
3424.000000	98.898308 
3423.000000	98.900206 
3422.000000	98.900878 
3421.000000	98.896765 
3420.000000	98.887406 
3419.000000	98.875216 
3418.000000	98.863349 
3417.000000	98.854408 
3416.000000	98.849487 
3415.000000	98.847552 
3414.000000	98.847061 
3413.000000	98.848725 
3412.000000	98.854785 
3411.000000	98.864604 
3410.000000	98.872983 
3409.000000	98.874688 
3408.000000	98.869800 
3407.000000	98.862977 
3406.000000	98.857511 
3405.000000	98.851646 
3404.000000	98.841223 
3403.000000	98.825442 
3402.000000	98.809207 
3401.000000	98.799248 
3400.000000	98.798202 
3399.000000	98.802951 
3398.000000	98.807894 
3397.000000	98.808094 
3396.000000	98.799717 
3395.000000	98.781252 
3394.000000	98.757333 
3393.000000	98.739346 
3392.000000	98.737734 
3391.000000	98.752410 
3390.000000	98.772511 
3389.000000	98.785695 
3388.000000	98.786699 
3387.000000	98.778758 
3386.000000	98.770349 
3385.000000	98.770173 
3384.000000	98.780855 
3383.000000	98.795254 
3382.000000	98.801404 
3381.000000	98.793364 
3380.000000	98.776530 
3379.000000	98.761490 
3378.000000	98.754058 
3377.000000	98.752241 
3376.000000	98.751008 
3375.000000	98.747704 
3374.000000	98.743166 
3373.000000	98.739425 
3372.000000	98.737151 
3371.000000	98.735318 
3370.000000	98.733316 
3369.000000	98.732745 
3368.000000	98.736194 
3367.000000	98.744684 
3366.000000	98.757241 
3365.000000	98.771935 
3364.000000	98.785349 
3363.000000	98.792032 
3362.000000	98.788072 
3361.000000	98.775976 
3360.000000	98.762759 
3359.000000	98.752024 
3358.000000	98.740942 
3357.000000	98.726848 
3356.000000	98.713450 
3355.000000	98.706849 
3354.000000	98.706980 
3353.000000	98.706931 
3352.000000	98.700979 
3351.000000	98.690981 
3350.000000	98.684360 
3349.000000	98.686867 
3348.000000	98.696904 
3347.000000	98.705983 
3346.000000	98.705808 
3345.000000	98.696666 
3344.000000	98.688252 
3343.000000	98.690027 
3342.000000	98.700587 
3341.000000	98.708063 
3340.000000	98.701493 
3339.000000	98.681169 
3338.000000	98.657758 
3337.000000	98.642376 
3336.000000	98.637882 
3335.000000	98.639023 
3334.000000	98.639650 
3333.000000	98.638003 
3332.000000	98.634419 
3331.000000	98.626525 
3330.000000	98.611115 
3329.000000	98.591574 
3328.000000	98.578796 
3327.000000	98.580539 
3326.000000	98.591643 
3325.000000	98.599134 
3324.000000	98.596496 
3323.000000	98.588545 
3322.000000	98.581247 
3321.000000	98.571507 
3320.000000	98.550937 
3319.000000	98.517868 
3318.000000	98.481371 
3317.000000	98.452551 
3316.000000	98.434735 
3315.000000	98.423660 
3314.000000	98.415058 
3313.000000	98.408763 
3312.000000	98.405097 
3311.000000	98.400177 
3310.000000	98.387538 
3309.000000	98.364579 
3308.000000	98.335762 
3307.000000	98.308379 
3306.000000	98.285437 
3305.000000	98.263323 
3304.000000	98.236663 
3303.000000	98.205333 
3302.000000	98.175960 
3301.000000	98.155590 
3300.000000	98.143938 
3299.000000	98.133278 
3298.000000	98.116474 
3297.000000	98.093675 
3296.000000	98.070300 
3295.000000	98.050257 
3294.000000	98.033315 
3293.000000	98.017768 
3292.000000	98.002522 
3291.000000	97.986489 
3290.000000	97.968777 
3289.000000	97.950697 
3288.000000	97.935642 
3287.000000	97.925326 
3286.000000	97.916754 
3285.000000	97.903752 
3284.000000	97.881520 
3283.000000	97.850337 
3282.000000	97.816142 
3281.000000	97.787380 
3280.000000	97.769451 
3279.000000	97.761417 
3278.000000	97.758643 
3277.000000	97.758252 
3276.000000	97.760781 
3275.000000	97.766780 
3274.000000	97.773674 
3273.000000	97.776237 
3272.000000	97.768628 
3271.000000	97.746292 
3270.000000	97.708748 
3269.000000	97.662119 
3268.000000	97.617406 
3267.000000	97.584271 
3266.000000	97.565690 
3265.000000	97.557488 
3264.000000	97.551802 
3263.000000	97.541969 
3262.000000	97.526901 
3261.000000	97.511328 
3260.000000	97.499536 
3259.000000	97.488469 
3258.000000	97.469652 
3257.000000	97.439355 
3256.000000	97.404225 
3255.000000	97.374416 
3254.000000	97.352651 
3253.000000	97.332696 
3252.000000	97.307966 
3251.000000	97.278826 
3250.000000	97.250802 
3249.000000	97.227472 
3248.000000	97.206803 
3247.000000	97.184417 
3246.000000	97.159052 
3245.000000	97.133365 
3244.000000	97.109550 
3243.000000	97.086272 
3242.000000	97.061165 
3241.000000	97.034234 
3240.000000	97.006372 
3239.000000	96.976208 
3238.000000	96.942068 
3237.000000	96.906895 
3236.000000	96.877253 
3235.000000	96.856191 
3234.000000	96.839806 
3233.000000	96.821738 
3232.000000	96.798121 
3231.000000	96.767195 
3230.000000	96.728493 
3229.000000	96.685698 
3228.000000	96.647428 
3227.000000	96.620873 
3226.000000	96.605142 
3225.000000	96.593392 
3224.000000	96.580393 
3223.000000	96.565126 
3222.000000	96.547082 
3221.000000	96.523990 
3220.000000	96.494425 
3219.000000	96.460189 
3218.000000	96.424517 
3217.000000	96.389127 
3216.000000	96.354044 
3215.000000	96.319673 
3214.000000	96.288100 
3213.000000	96.262066 
3212.000000	96.242158 
3211.000000	96.224578 
3210.000000	96.202672 
3209.000000	96.172083 
3208.000000	96.134275 
3207.000000	96.093845 
3206.000000	96.052706 
3205.000000	96.008490 
3204.000000	95.958975 
3203.000000	95.906216 
3202.000000	95.854494 
3201.000000	95.804746 
3200.000000	95.753491 
3199.000000	95.698914 
3198.000000	95.646385 
3197.000000	95.604310 
3196.000000	95.572916 
3195.000000	95.539938 
3194.000000	95.490805 
3193.000000	95.422915 
3192.000000	95.347416 
3191.000000	95.276758 
3190.000000	95.213107 
3189.000000	95.149473 
