PE IR                   SPECTRUM    ASCII       PEDS        1.60        
  -1
~SP.SP
18/03/23
17:53:16.00
18/03/23
17:53:16.00
pili
NI
650.000000
4









SPECTRUM 100,CPU32 MAIN 00.02.8200 12-DECEMBER-2006 10:00:00
MIR TGS
MIR
OPTKBR
78890
0.200000

4.000000
STRONG
RATIO
SPECTRUM
MAGNITUDE
UNIVERSAL ATR
DOUBLE

COMBINED


0


#HDR
-1
-1
#GR
CM-1
%T
0.00002384185791015625
0.0
4000.000000
-1.000000
3351
8
100.392324
50.410761
#DATA
4000.000000	98.114037  
3999.000000	98.104403  
3998.000000	98.100843  
3997.000000	98.108526  
3996.000000	98.125369  
3995.000000	98.144064  
3994.000000	98.150293  
3993.000000	98.159824  
3992.000000	98.166779  
3991.000000	98.170756  
3990.000000	98.168580  
3989.000000	98.158615  
3988.000000	98.144471  
3987.000000	98.133505  
3986.000000	98.131580  
3985.000000	98.139025  
3984.000000	98.150645  
3983.000000	98.159170  
3982.000000	98.159180  
3981.000000	98.149439  
3980.000000	98.133372  
3979.000000	98.117750  
3978.000000	98.109688  
3977.000000	98.112806  
3976.000000	98.124691  
3975.000000	98.137747  
3974.000000	98.143310  
3973.000000	98.136816  
3972.000000	98.120646  
3971.000000	98.102393  
3970.000000	98.089857  
3969.000000	98.086489  
3968.000000	98.090793  
3967.000000	98.099314  
3966.000000	98.109631  
3965.000000	98.120398  
3964.000000	98.129531  
3963.000000	98.133612  
3962.000000	98.129875  
3961.000000	98.118999  
3960.000000	98.105964  
3959.000000	98.097496  
3958.000000	98.097914  
3957.000000	98.106664  
3956.000000	98.119206  
3955.000000	98.130611  
3954.000000	98.138854  
3953.000000	98.145048  
3952.000000	98.150884  
3951.000000	98.156131  
3950.000000	98.159071  
3949.000000	98.158914  
3948.000000	98.157032  
3947.000000	98.155567  
3946.000000	98.155407  
3945.000000	98.155999  
3944.000000	98.157026  
3943.000000	98.160073  
3942.000000	98.167813  
3941.000000	98.180518  
3940.000000	98.194131  
3939.000000	98.202533  
3938.000000	98.201819  
3937.000000	98.192575  
3936.000000	98.178778  
3935.000000	98.165470  
3934.000000	98.156839  
3933.000000	98.155024  
3932.000000	98.159381  
3931.000000	98.166891  
3930.000000	98.173753  
3929.000000	98.176607  
3928.000000	98.173587  
3927.000000	98.165507  
3926.000000	98.155228  
3925.000000	98.145865  
3924.000000	98.139866  
3923.000000	98.138161  
3922.000000	98.139566  
3921.000000	98.141693  
3920.000000	98.143331  
3919.000000	98.145155  
3918.000000	98.147587  
3917.000000	98.149527  
3916.000000	98.150528  
3915.000000	98.152443  
3914.000000	98.157054  
3913.000000	98.162529  
3912.000000	98.165295  
3911.000000	98.164638  
3910.000000	98.164296  
3909.000000	98.168566  
3908.000000	98.177585  
3907.000000	98.187477  
3906.000000	98.194425  
3905.000000	98.197979  
3904.000000	98.201135  
3903.000000	98.206391  
3902.000000	98.211354  
3901.000000	98.210148  
3900.000000	98.199315  
3899.000000	98.183068  
3898.000000	98.171070  
3897.000000	98.169449  
3896.000000	98.176391  
3895.000000	98.185142  
3894.000000	98.189564  
3893.000000	98.187686  
3892.000000	98.182505  
3891.000000	98.179325  
3890.000000	98.180531  
3889.000000	98.183645  
3888.000000	98.184925  
3887.000000	98.182619  
3886.000000	98.178201  
3885.000000	98.176589  
3884.000000	98.182593  
3883.000000	98.195578  
3882.000000	98.209134  
3881.000000	98.215662  
3880.000000	98.212655  
3879.000000	98.204975  
3878.000000	98.198018  
3877.000000	98.193573  
3876.000000	98.192508  
3875.000000	98.194718  
3874.000000	98.197462  
3873.000000	98.199098  
3872.000000	98.201839  
3871.000000	98.207659  
3870.000000	98.214571  
3869.000000	98.219593  
3868.000000	98.223653  
3867.000000	98.229439  
3866.000000	98.234898  
3865.000000	98.232242  
3864.000000	98.217107  
3863.000000	98.195367  
3862.000000	98.179079  
3861.000000	98.175564  
3860.000000	98.182172  
3859.000000	98.188852  
3858.000000	98.186655  
3857.000000	98.174710  
3856.000000	98.160358  
3855.000000	98.151490  
3854.000000	98.150016  
3853.000000	98.153320  
3852.000000	98.158104  
3851.000000	98.160213  
3850.000000	98.160178  
3849.000000	98.164283  
3848.000000	98.177939  
3847.000000	98.199044  
3846.000000	98.218522  
3845.000000	98.227946  
3844.000000	98.226034  
3843.000000	98.216476  
3842.000000	98.204883  
3841.000000	98.196273  
3840.000000	98.193588  
3839.000000	98.197950  
3838.000000	98.208801  
3837.000000	98.222044  
3836.000000	98.230926  
3835.000000	98.230989  
3834.000000	98.224300  
3833.000000	98.216536  
3832.000000	98.211452  
3831.000000	98.209522  
3830.000000	98.209723  
3829.000000	98.212059  
3828.000000	98.218856  
3827.000000	98.230339  
3826.000000	98.241114  
3825.000000	98.243815  
3824.000000	98.235653  
3823.000000	98.220271  
3822.000000	98.205273  
3821.000000	98.196882  
3820.000000	98.196134  
3819.000000	98.199627  
3818.000000	98.202805  
3817.000000	98.203819  
3816.000000	98.203953  
3815.000000	98.206599  
3814.000000	98.213886  
3813.000000	98.222825  
3812.000000	98.227618  
3811.000000	98.225228  
3810.000000	98.217881  
3809.000000	98.210916  
3808.000000	98.207539  
3807.000000	98.206548  
3806.000000	98.207346  
3805.000000	98.213056  
3804.000000	98.227756  
3803.000000	98.248989  
3802.000000	98.264033  
3801.000000	98.262816  
3800.000000	98.250930  
3799.000000	98.239561  
3798.000000	98.232694  
3797.000000	98.227244  
3796.000000	98.219452  
3795.000000	98.212087  
3794.000000	98.212690  
3793.000000	98.224663  
3792.000000	98.242573  
3791.000000	98.255531  
3790.000000	98.255438  
3789.000000	98.244524  
3788.000000	98.233949  
3787.000000	98.234069  
3786.000000	98.244791  
3785.000000	98.255489  
3784.000000	98.256364  
3783.000000	98.248722  
3782.000000	98.242274  
3781.000000	98.243932  
3780.000000	98.250847  
3779.000000	98.254102  
3778.000000	98.248737  
3777.000000	98.236688  
3776.000000	98.221765  
3775.000000	98.205815  
3774.000000	98.190347  
3773.000000	98.179268  
3772.000000	98.177544  
3771.000000	98.185524  
3770.000000	98.197809  
3769.000000	98.209512  
3768.000000	98.220113  
3767.000000	98.231093  
3766.000000	98.241535  
3765.000000	98.247018  
3764.000000	98.244261  
3763.000000	98.235509  
3762.000000	98.227423  
3761.000000	98.225531  
3760.000000	98.230866  
3759.000000	98.240199  
3758.000000	98.248353  
3757.000000	98.251680  
3756.000000	98.251578  
3755.000000	98.253928  
3754.000000	98.262510  
3753.000000	98.272336  
3752.000000	98.273216  
3751.000000	98.263992  
3750.000000	98.255997  
3749.000000	98.255521  
3748.000000	98.256442  
3747.000000	98.254696  
3746.000000	98.253381  
3745.000000	98.255545  
3744.000000	98.261367  
3743.000000	98.267521  
3742.000000	98.266218  
3741.000000	98.253176  
3740.000000	98.234103  
3739.000000	98.221433  
3738.000000	98.224498  
3737.000000	98.240958  
3736.000000	98.257355  
3735.000000	98.262666  
3734.000000	98.260628  
3733.000000	98.262208  
3732.000000	98.271070  
3731.000000	98.281378  
3730.000000	98.285131  
3729.000000	98.280122  
3728.000000	98.269961  
3727.000000	98.259863  
3726.000000	98.253446  
3725.000000	98.251363  
3724.000000	98.251136  
3723.000000	98.250074  
3722.000000	98.250572  
3721.000000	98.257906  
3720.000000	98.273440  
3719.000000	98.292240  
3718.000000	98.306050  
3717.000000	98.310336  
3716.000000	98.308537  
3715.000000	98.307962  
3714.000000	98.309711  
3713.000000	98.304497  
3712.000000	98.282847  
3711.000000	98.250350  
3710.000000	98.225363  
3709.000000	98.220612  
3708.000000	98.232835  
3707.000000	98.249316  
3706.000000	98.261307  
3705.000000	98.268007  
3704.000000	98.272247  
3703.000000	98.273478  
3702.000000	98.269332  
3701.000000	98.261504  
3700.000000	98.256254  
3699.000000	98.258425  
3698.000000	98.267048  
3697.000000	98.277376  
3696.000000	98.286301  
3695.000000	98.295317  
3694.000000	98.305889  
3693.000000	98.315789  
3692.000000	98.319831  
3691.000000	98.313889  
3690.000000	98.297674  
3689.000000	98.277726  
3688.000000	98.265528  
3687.000000	98.267987  
3686.000000	98.284282  
3685.000000	98.307554  
3684.000000	98.328005  
3683.000000	98.338242  
3682.000000	98.339805  
3681.000000	98.340279  
3680.000000	98.342838  
3679.000000	98.343586  
3678.000000	98.338785  
3677.000000	98.327027  
3676.000000	98.307163  
3675.000000	98.283255  
3674.000000	98.265513  
3673.000000	98.261418  
3672.000000	98.272996  
3671.000000	98.295864  
3670.000000	98.318680  
3669.000000	98.333774  
3668.000000	98.342922  
3667.000000	98.348639  
3666.000000	98.351085  
3665.000000	98.351602  
3664.000000	98.353329  
3663.000000	98.358823  
3662.000000	98.366804  
3661.000000	98.373201  
3660.000000	98.374884  
3659.000000	98.371862  
3658.000000	98.365602  
3657.000000	98.357030  
3656.000000	98.348142  
3655.000000	98.342705  
3654.000000	98.343499  
3653.000000	98.351271  
3652.000000	98.364318  
3651.000000	98.376498  
3650.000000	98.381476  
3649.000000	98.381742  
3648.000000	98.386067  
3647.000000	98.396892  
3646.000000	98.408380  
3645.000000	98.414046  
3644.000000	98.412423  
3643.000000	98.407230  
3642.000000	98.403338  
3641.000000	98.403184  
3640.000000	98.405419  
3639.000000	98.405938  
3638.000000	98.400669  
3637.000000	98.389169  
3636.000000	98.376002  
3635.000000	98.367371  
3634.000000	98.366323  
3633.000000	98.372104  
3632.000000	98.383962  
3631.000000	98.402077  
3630.000000	98.421784  
3629.000000	98.433389  
3628.000000	98.435834  
3627.000000	98.437562  
3626.000000	98.442300  
3625.000000	98.448673  
3624.000000	98.454515  
3623.000000	98.457343  
3622.000000	98.456418  
3621.000000	98.454061  
3620.000000	98.454228  
3619.000000	98.459476  
3618.000000	98.468325  
3617.000000	98.475707  
3616.000000	98.477407  
3615.000000	98.473001  
3614.000000	98.464970  
3613.000000	98.457187  
3612.000000	98.454448  
3611.000000	98.460912  
3610.000000	98.476727  
3609.000000	98.496179  
3608.000000	98.511183  
3607.000000	98.518037  
3606.000000	98.519669  
3605.000000	98.521301  
3604.000000	98.526961  
3603.000000	98.538500  
3602.000000	98.555526  
3601.000000	98.574256  
3600.000000	98.588775  
3599.000000	98.596293  
3598.000000	98.599457  
3597.000000	98.604603  
3596.000000	98.616007  
3595.000000	98.630698  
3594.000000	98.640780  
3593.000000	98.642054  
3592.000000	98.637246  
3591.000000	98.633010  
3590.000000	98.633669  
3589.000000	98.637230  
3588.000000	98.638330  
3587.000000	98.637719  
3586.000000	98.644083  
3585.000000	98.662322  
3584.000000	98.686300  
3583.000000	98.705340  
3582.000000	98.713695  
3581.000000	98.713344  
3580.000000	98.708979  
3579.000000	98.702413  
3578.000000	98.692655  
3577.000000	98.680901  
3576.000000	98.671879  
3575.000000	98.669537  
3574.000000	98.672461  
3573.000000	98.676976  
3572.000000	98.682758  
3571.000000	98.694763  
3570.000000	98.718471  
3569.000000	98.752586  
3568.000000	98.785638  
3567.000000	98.804407  
3566.000000	98.806487  
3565.000000	98.800355  
3564.000000	98.795557  
3563.000000	98.798093  
3562.000000	98.809739  
3561.000000	98.826914  
3560.000000	98.841230  
3559.000000	98.845546  
3558.000000	98.840014  
3557.000000	98.832009  
3556.000000	98.830230  
3555.000000	98.839213  
3554.000000	98.857256  
3553.000000	98.878940  
3552.000000	98.900230  
3551.000000	98.922020  
3550.000000	98.947316  
3549.000000	98.974242  
3548.000000	98.993000  
3547.000000	98.993474  
3546.000000	98.977467  
3545.000000	98.959995  
3544.000000	98.954376  
3543.000000	98.959257  
3542.000000	98.963033  
3541.000000	98.958809  
3540.000000	98.951508  
3539.000000	98.951190  
3538.000000	98.961809  
3537.000000	98.978302  
3536.000000	98.993279  
3535.000000	99.004168  
3534.000000	99.013321  
3533.000000	99.023634  
3532.000000	99.036345  
3531.000000	99.051950  
3530.000000	99.069922  
3529.000000	99.085873  
3528.000000	99.091389  
3527.000000	99.081141  
3526.000000	99.061217  
3525.000000	99.047302  
3524.000000	99.052337  
3523.000000	99.075491  
3522.000000	99.104192  
3521.000000	99.125666  
3520.000000	99.135269  
3519.000000	99.136046  
3518.000000	99.134034  
3517.000000	99.134297  
3516.000000	99.139020  
3515.000000	99.147625  
3514.000000	99.158846  
3513.000000	99.172349  
3512.000000	99.187226  
3511.000000	99.199617  
3510.000000	99.204411  
3509.000000	99.200358  
3508.000000	99.192013  
3507.000000	99.185895  
3506.000000	99.185463  
3505.000000	99.189494  
3504.000000	99.193241  
3503.000000	99.191498  
3502.000000	99.182313  
3501.000000	99.167962  
3500.000000	99.151971  
3499.000000	99.136547  
3498.000000	99.124443  
3497.000000	99.121360  
3496.000000	99.132003  
3495.000000	99.152246  
3494.000000	99.169320  
3493.000000	99.173645  
3492.000000	99.168851  
3491.000000	99.166736  
3490.000000	99.173505  
3489.000000	99.184116  
3488.000000	99.190516  
3487.000000	99.191683  
3486.000000	99.193633  
3485.000000	99.201731  
3484.000000	99.215207  
3483.000000	99.227159  
3482.000000	99.228025  
3481.000000	99.211422  
3480.000000	99.180155  
3479.000000	99.147033  
3478.000000	99.126885  
3477.000000	99.125064  
3476.000000	99.133842  
3475.000000	99.141325  
3474.000000	99.144093  
3473.000000	99.149020  
3472.000000	99.162574  
3471.000000	99.180990  
3470.000000	99.193232  
3469.000000	99.192792  
3468.000000	99.184037  
3467.000000	99.177006  
3466.000000	99.177712  
3465.000000	99.184488  
3464.000000	99.191996  
3463.000000	99.197314  
3462.000000	99.203067  
3461.000000	99.215440  
3460.000000	99.238012  
3459.000000	99.266071  
3458.000000	99.287785  
3457.000000	99.293438  
3456.000000	99.284097  
3455.000000	99.270627  
3454.000000	99.264313  
3453.000000	99.269238  
3452.000000	99.282978  
3451.000000	99.301130  
3450.000000	99.319118  
3449.000000	99.331785  
3448.000000	99.335351  
3447.000000	99.331028  
3446.000000	99.324164  
3445.000000	99.317950  
3444.000000	99.310021  
3443.000000	99.296938  
3442.000000	99.280072  
3441.000000	99.264901  
3440.000000	99.255611  
3439.000000	99.252947  
3438.000000	99.256206  
3437.000000	99.263613  
3436.000000	99.270280  
3435.000000	99.270078  
3434.000000	99.262190  
3433.000000	99.253477  
3432.000000	99.252052  
3431.000000	99.259833  
3430.000000	99.272978  
3429.000000	99.286971  
3428.000000	99.298419  
3427.000000	99.304223  
3426.000000	99.303339  
3425.000000	99.299092  
3424.000000	99.295970  
3423.000000	99.293559  
3422.000000	99.286770  
3421.000000	99.273344  
3420.000000	99.258327  
3419.000000	99.249500  
3418.000000	99.250051  
3417.000000	99.256572  
3416.000000	99.262155  
3415.000000	99.260668  
3414.000000	99.250501  
3413.000000	99.236299  
3412.000000	99.225849  
3411.000000	99.223500  
3410.000000	99.226685  
3409.000000	99.229334  
3408.000000	99.228206  
3407.000000	99.225714  
3406.000000	99.226686  
3405.000000	99.232175  
3404.000000	99.236314  
3403.000000	99.231060  
3402.000000	99.216008  
3401.000000	99.201988  
3400.000000	99.201176  
3399.000000	99.213306  
3398.000000	99.224351  
3397.000000	99.219797  
3396.000000	99.197199  
3395.000000	99.165852  
3394.000000	99.138063  
3393.000000	99.122643  
3392.000000	99.122583  
3391.000000	99.134475  
3390.000000	99.150180  
3389.000000	99.161272  
3388.000000	99.163088  
3387.000000	99.155927  
3386.000000	99.144936  
3385.000000	99.138738  
3384.000000	99.143837  
3383.000000	99.157059  
3382.000000	99.165713  
3381.000000	99.158946  
3380.000000	99.138971  
3379.000000	99.119421  
3378.000000	99.112767  
3377.000000	99.120408  
3376.000000	99.133569  
3375.000000	99.141609  
3374.000000	99.139891  
3373.000000	99.132112  
3372.000000	99.126084  
3371.000000	99.126699  
3370.000000	99.132731  
3369.000000	99.139958  
3368.000000	99.145825  
3367.000000	99.150554  
3366.000000	99.155470  
3365.000000	99.161309  
3364.000000	99.166649  
3363.000000	99.167102  
3362.000000	99.158306  
3361.000000	99.141625  
3360.000000	99.124771  
3359.000000	99.114303  
3358.000000	99.108945  
3357.000000	99.102932  
3356.000000	99.094411  
3355.000000	99.086699  
3354.000000	99.081376  
3353.000000	99.074620  
3352.000000	99.062801  
3351.000000	99.049484  
3350.000000	99.043750  
3349.000000	99.050829  
3348.000000	99.065333  
3347.000000	99.074794  
3346.000000	99.070912  
3345.000000	99.057379  
3344.000000	99.046068  
3343.000000	99.045038  
3342.000000	99.050870  
3341.000000	99.052779  
3340.000000	99.042868  
3339.000000	99.022075  
3338.000000	98.998122  
3337.000000	98.979761  
3336.000000	98.972076  
3335.000000	98.974609  
3334.000000	98.982263  
3333.000000	98.987594  
3332.000000	98.983270  
3331.000000	98.965652  
3330.000000	98.939633  
3329.000000	98.919159  
3328.000000	98.917579  
3327.000000	98.934258  
3326.000000	98.953736  
3325.000000	98.961186  
3324.000000	98.956153  
3323.000000	98.947890  
3322.000000	98.940279  
3321.000000	98.927501  
3320.000000	98.904113  
3319.000000	98.873630  
3318.000000	98.844897  
3317.000000	98.823693  
3316.000000	98.810444  
3315.000000	98.803373  
3314.000000	98.800914  
3313.000000	98.801799  
3312.000000	98.804388  
3311.000000	98.805326  
3310.000000	98.798604  
3309.000000	98.778470  
3308.000000	98.745447  
3307.000000	98.708117  
3306.000000	98.676562  
3305.000000	98.654224  
3304.000000	98.637696  
3303.000000	98.623543  
3302.000000	98.612406  
3301.000000	98.605324  
3300.000000	98.598532  
3299.000000	98.585206  
3298.000000	98.562940  
3297.000000	98.537456  
3296.000000	98.517520  
3295.000000	98.506954  
3294.000000	98.502839  
3293.000000	98.500417  
3292.000000	98.497437  
3291.000000	98.493496  
3290.000000	98.487469  
3289.000000	98.477450  
3288.000000	98.462638  
3287.000000	98.443991  
3286.000000	98.422951  
3285.000000	98.400260  
3284.000000	98.376517  
3283.000000	98.354128  
3282.000000	98.338079  
3281.000000	98.332773  
3280.000000	98.336376  
3279.000000	98.339739  
3278.000000	98.334103  
3277.000000	98.320253  
3276.000000	98.307607  
3275.000000	98.303352  
3274.000000	98.304473  
3273.000000	98.300966  
3272.000000	98.284207  
3271.000000	98.251900  
3270.000000	98.209170  
3269.000000	98.167692  
3268.000000	98.140179  
3267.000000	98.130686  
3266.000000	98.130238  
3265.000000	98.124736  
3264.000000	98.107471  
3263.000000	98.082929  
3262.000000	98.060295  
3261.000000	98.046032  
3260.000000	98.040825  
3259.000000	98.039404  
3258.000000	98.032831  
3257.000000	98.014408  
3256.000000	97.985225  
3255.000000	97.952950  
3254.000000	97.924992  
3253.000000	97.903805  
3252.000000	97.887937  
3251.000000	97.874873  
3250.000000	97.862325  
3249.000000	97.848640  
3248.000000	97.832564  
3247.000000	97.811924  
3246.000000	97.783790  
3245.000000	97.748740  
3244.000000	97.714612  
3243.000000	97.692018  
3242.000000	97.683774  
3241.000000	97.680425  
3240.000000	97.668241  
3239.000000	97.641711  
3238.000000	97.607761  
3237.000000	97.578474  
3236.000000	97.560251  
3235.000000	97.549178  
3234.000000	97.535590  
3233.000000	97.512627  
3232.000000	97.480756  
3231.000000	97.445064  
3230.000000	97.410038  
3229.000000	97.377649  
3228.000000	97.348554  
3227.000000	97.322787  
3226.000000	97.299742  
3225.000000	97.279624  
3224.000000	97.264913  
3223.000000	97.258057  
3222.000000	97.256740  
3221.000000	97.253032  
